LiCoMn game results file
Grain count constrained to grain size >5 atoms

x=1-[Co]	[Li]/[Mn]	size	Li_grains	Co_grains	Grain sizes (in order)

0.1985	0.4388	15.0000	1.0000	2.0000	541.0000	37.0000	94.0000	
0.9467	0.3846	15.0000	1.0000	1.0000	36.0000	639.0000	
0.4074	0.3841	15.0000	1.0000	1.0000	400.0000	270.0000	
0.9452	0.3214	15.0000	1.0000	1.0000	37.0000	638.0000	
0.3481	0.3707	15.0000	1.0000	1.0000	440.0000	231.0000	
0.5215	0.3458	15.0000	1.0000	1.0000	323.0000	350.0000	
0.9659	0.4375	15.0000	1.0000	1.0000	23.0000	652.0000	
0.9585	0.4000	15.0000	1.0000	1.0000	28.0000	647.0000	
0.9496	0.3077	15.0000	1.0000	1.0000	34.0000	641.0000	
0.3941	0.3912	15.0000	1.0000	1.0000	409.0000	263.0000	
0.4059	0.4070	15.0000	1.0000	1.0000	401.0000	272.0000	
0.6326	0.3778	15.0000	2.0000	1.0000	36.0000	212.0000	424.0000	
0.9541	0.4091	15.0000	1.0000	1.0000	31.0000	644.0000	
0.5422	0.3493	15.0000	1.0000	1.0000	309.0000	363.0000	
0.4281	0.3835	15.0000	1.0000	1.0000	386.0000	287.0000	
0.6474	0.3446	15.0000	1.0000	1.0000	238.0000	437.0000	
0.9541	0.3478	15.0000	1.0000	1.0000	31.0000	644.0000	
0.3615	0.4039	15.0000	1.0000	3.0000	431.0000	48.0000	72.0000	120.0000	
0.1733	0.4456	15.0000	1.0000	2.0000	558.0000	50.0000	66.0000	
0.9363	0.3438	15.0000	1.0000	1.0000	43.0000	632.0000	
0.9496	0.3077	15.0000	1.0000	1.0000	34.0000	641.0000	
0.4622	0.3802	15.0000	1.0000	1.0000	363.0000	310.0000	
0.9496	0.3600	15.0000	1.0000	1.0000	34.0000	641.0000	
0.9481	0.2963	15.0000	1.0000	1.0000	35.0000	640.0000	
0.9570	0.4500	15.0000	1.0000	1.0000	29.0000	646.0000	
0.4341	0.4096	15.0000	1.0000	1.0000	382.0000	293.0000	
0.9541	0.4091	15.0000	1.0000	1.0000	31.0000	644.0000	
0.4504	0.4380	15.0000	1.0000	1.0000	371.0000	303.0000	
0.9541	0.4091	15.0000	1.0000	1.0000	31.0000	644.0000	
0.6119	0.3505	15.0000	1.0000	1.0000	262.0000	413.0000	
0.6000	0.3366	15.0000	2.0000	1.0000	35.0000	235.0000	404.0000	
0.9363	0.3030	15.0000	1.0000	1.0000	43.0000	632.0000	
0.3630	0.4052	15.0000	1.0000	1.0000	430.0000	245.0000	
0.3067	0.4356	15.0000	1.0000	1.0000	468.0000	204.0000	
0.6104	0.3915	15.0000	2.0000	1.0000	27.0000	236.0000	409.0000	
0.9422	0.3929	15.0000	1.0000	1.0000	39.0000	636.0000	
0.3230	0.4416	15.0000	1.0000	1.0000	457.0000	214.0000	
0.4074	0.3889	15.0000	1.0000	1.0000	400.0000	268.0000	
0.3837	0.3913	15.0000	2.0000	2.0000	24.0000	391.0000	43.0000	212.0000	
0.9511	0.3750	15.0000	1.0000	1.0000	33.0000	642.0000	
0.3896	0.4158	15.0000	1.0000	1.0000	412.0000	262.0000	
0.6578	0.3509	15.0000	3.0000	1.0000	66.0000	70.0000	95.0000	444.0000	
0.5141	0.3554	15.0000	1.0000	1.0000	328.0000	345.0000	
0.9674	0.5714	15.0000	1.0000	1.0000	22.0000	653.0000	
0.4504	0.3741	15.0000	1.0000	1.0000	371.0000	300.0000	
0.3393	0.4387	15.0000	1.0000	1.0000	446.0000	229.0000	
0.9600	0.4211	15.0000	1.0000	1.0000	27.0000	647.0000	
0.9422	0.3448	15.0000	1.0000	1.0000	39.0000	636.0000	
0.6889	0.3291	15.0000	3.0000	1.0000	27.0000	62.0000	121.0000	465.0000	
0.9304	0.3824	15.0000	1.0000	1.0000	47.0000	628.0000	
0.9230	0.3000	15.0000	1.0000	1.0000	52.0000	623.0000	
0.9541	0.3478	15.0000	1.0000	1.0000	31.0000	644.0000	
0.9007	0.3137	15.0000	1.0000	1.0000	67.0000	608.0000	
0.9541	0.3478	15.0000	1.0000	1.0000	31.0000	644.0000	
0.9348	0.3333	15.0000	1.0000	1.0000	44.0000	631.0000	
0.3348	0.3944	15.0000	2.0000	1.0000	31.0000	418.0000	226.0000	
0.9304	0.3429	15.0000	1.0000	1.0000	47.0000	628.0000	
0.3156	0.3916	15.0000	1.0000	1.0000	462.0000	206.0000	
0.5274	0.3517	15.0000	2.0000	1.0000	41.0000	278.0000	355.0000	
0.5496	0.3511	15.0000	1.0000	1.0000	304.0000	369.0000	
0.4459	0.3903	15.0000	1.0000	1.0000	374.0000	299.0000	
0.9363	0.3030	15.0000	1.0000	1.0000	43.0000	632.0000	
0.9674	0.4667	15.0000	1.0000	1.0000	21.0000	653.0000	
0.9526	0.3913	15.0000	1.0000	1.0000	32.0000	643.0000	
0.9585	0.4000	15.0000	1.0000	1.0000	28.0000	647.0000	
0.9481	0.3462	15.0000	1.0000	1.0000	35.0000	640.0000	
0.9363	0.3030	15.0000	1.0000	1.0000	43.0000	632.0000	
0.5289	0.3826	15.0000	2.0000	1.0000	31.0000	287.0000	357.0000	
0.9481	0.3462	15.0000	1.0000	1.0000	35.0000	640.0000	
0.9630	0.3889	15.0000	1.0000	1.0000	25.0000	650.0000	
0.3007	0.4132	15.0000	1.0000	1.0000	472.0000	202.0000	
0.4563	0.3797	15.0000	1.0000	1.0000	367.0000	308.0000	
0.9659	0.4375	15.0000	1.0000	1.0000	23.0000	652.0000	
0.5496	0.3694	15.0000	3.0000	1.0000	27.0000	38.0000	239.0000	370.0000	
0.9556	0.4286	15.0000	1.0000	1.0000	30.0000	645.0000	
0.3778	0.3861	15.0000	1.0000	1.0000	420.0000	255.0000	
0.4207	0.4218	15.0000	1.0000	1.0000	391.0000	281.0000	
0.3793	0.4155	15.0000	1.0000	1.0000	419.0000	256.0000	
0.0963	0.4699	15.0000	1.0000	1.0000	610.0000	64.0000	
0.6815	0.3608	15.0000	1.0000	1.0000	215.0000	459.0000	
0.9378	0.3548	15.0000	1.0000	1.0000	42.0000	633.0000	
0.4385	0.3832	15.0000	1.0000	1.0000	379.0000	292.0000	
0.5111	0.3983	15.0000	1.0000	1.0000	330.0000	344.0000	
0.9541	0.3478	15.0000	1.0000	1.0000	31.0000	644.0000	
0.9630	0.3889	15.0000	1.0000	1.0000	25.0000	650.0000	
0.9585	0.4737	15.0000	1.0000	1.0000	28.0000	647.0000	
0.9185	0.3095	15.0000	1.0000	1.0000	55.0000	620.0000	
0.9333	0.3636	15.0000	1.0000	1.0000	45.0000	630.0000	
0.4696	0.3769	15.0000	2.0000	1.0000	32.0000	326.0000	316.0000	
0.3022	0.4230	15.0000	1.0000	1.0000	471.0000	201.0000	
0.5215	0.3803	15.0000	2.0000	1.0000	31.0000	292.0000	349.0000	
0.9363	0.3030	15.0000	1.0000	1.0000	43.0000	632.0000	
0.4430	0.3673	15.0000	2.0000	1.0000	31.0000	345.0000	294.0000	
0.9452	0.3704	15.0000	1.0000	1.0000	37.0000	638.0000	
0.9393	0.3667	15.0000	1.0000	1.0000	41.0000	634.0000	
0.5970	0.3600	15.0000	1.0000	1.0000	271.0000	401.0000	
0.9541	0.3478	15.0000	1.0000	1.0000	31.0000	644.0000	
0.6385	0.3631	15.0000	3.0000	1.0000	33.0000	35.0000	176.0000	431.0000	
0.4370	0.3818	15.0000	1.0000	1.0000	380.0000	293.0000	
0.6415	0.3750	15.0000	2.0000	1.0000	31.0000	211.0000	433.0000	
0.5230	0.3586	15.0000	1.0000	1.0000	322.0000	350.0000	
0.4504	0.4160	15.0000	1.0000	1.0000	371.0000	304.0000	
0.9556	0.3636	15.0000	1.0000	1.0000	30.0000	645.0000	
0.3926	0.3851	15.0000	1.0000	1.0000	410.0000	261.0000	
0.4637	0.3977	15.0000	1.0000	1.0000	362.0000	313.0000	
0.9704	0.5385	15.0000	1.0000	1.0000	20.0000	655.0000	
0.5704	0.3488	15.0000	1.0000	2.0000	290.0000	10.0000	373.0000	
0.9452	0.3214	15.0000	1.0000	1.0000	37.0000	638.0000	
0.3793	0.4252	15.0000	1.0000	1.0000	419.0000	255.0000	
0.5215	0.3922	15.0000	2.0000	1.0000	27.0000	296.0000	351.0000	
0.9630	0.3889	15.0000	1.0000	1.0000	25.0000	650.0000	
0.6978	0.3421	15.0000	3.0000	1.0000	27.0000	38.0000	139.0000	470.0000	
0.9496	0.4167	15.0000	1.0000	1.0000	34.0000	641.0000	
0.9481	0.2963	15.0000	1.0000	1.0000	35.0000	640.0000	
0.4030	0.3993	15.0000	1.0000	1.0000	403.0000	267.0000	
0.3985	0.4146	15.0000	1.0000	1.0000	406.0000	266.0000	
0.4133	0.4194	15.0000	1.0000	1.0000	396.0000	277.0000	
0.9570	0.3810	15.0000	1.0000	1.0000	29.0000	646.0000	
0.4978	0.3780	15.0000	2.0000	1.0000	23.0000	315.0000	336.0000	
0.5007	0.3699	15.0000	1.0000	1.0000	337.0000	333.0000	
0.9644	0.4118	15.0000	1.0000	1.0000	24.0000	651.0000	
0.9422	0.3448	15.0000	1.0000	1.0000	39.0000	636.0000	
0.9570	0.3810	15.0000	1.0000	1.0000	29.0000	646.0000	
0.4385	0.3584	15.0000	1.0000	1.0000	379.0000	289.0000	
0.9570	0.5263	15.0000	1.0000	1.0000	29.0000	646.0000	
0.9467	0.3333	15.0000	1.0000	1.0000	36.0000	639.0000	
0.4326	0.3582	15.0000	1.0000	2.0000	383.0000	56.0000	233.0000	
0.3526	0.3962	15.0000	1.0000	1.0000	437.0000	238.0000	
0.9511	0.3750	15.0000	1.0000	1.0000	33.0000	642.0000	
0.4178	0.4036	15.0000	1.0000	2.0000	393.0000	73.0000	207.0000	
0.3748	0.3927	15.0000	1.0000	1.0000	422.0000	248.0000	
0.9541	0.3478	15.0000	1.0000	1.0000	31.0000	644.0000	
0.5274	0.4053	15.0000	1.0000	1.0000	319.0000	353.0000	
0.5600	0.3624	15.0000	1.0000	1.0000	297.0000	374.0000	
0.6726	0.3558	15.0000	2.0000	1.0000	23.0000	198.0000	452.0000	
0.3689	0.3831	15.0000	1.0000	1.0000	426.0000	248.0000	
0.5007	0.3868	15.0000	1.0000	1.0000	337.0000	337.0000	
0.5274	0.3632	15.0000	2.0000	1.0000	72.0000	247.0000	355.0000	
0.5585	0.3545	15.0000	1.0000	1.0000	298.0000	376.0000	
0.9526	0.3913	15.0000	1.0000	1.0000	32.0000	643.0000	
0.2978	0.4065	15.0000	1.0000	1.0000	474.0000	198.0000	
0.5156	0.3568	15.0000	1.0000	1.0000	327.0000	347.0000	
0.9689	0.5000	15.0000	1.0000	1.0000	21.0000	654.0000	
0.6281	0.3211	15.0000	1.0000	1.0000	251.0000	423.0000	
0.6815	0.3961	15.0000	1.0000	1.0000	215.0000	460.0000	
0.3689	0.3654	15.0000	1.0000	2.0000	426.0000	89.0000	156.0000	
0.2741	0.4203	15.0000	1.0000	1.0000	490.0000	183.0000	
0.6844	0.3481	15.0000	1.0000	1.0000	213.0000	459.0000	
0.4326	0.4029	15.0000	1.0000	1.0000	383.0000	289.0000	
0.6444	0.3873	15.0000	1.0000	1.0000	240.0000	435.0000	
0.9452	0.3214	15.0000	1.0000	1.0000	37.0000	638.0000	
0.5733	0.3649	15.0000	2.0000	1.0000	24.0000	264.0000	386.0000	
0.9570	0.3810	15.0000	1.0000	1.0000	29.0000	646.0000	
0.4667	0.3636	15.0000	2.0000	1.0000	31.0000	329.0000	313.0000	
0.9719	0.5833	15.0000	1.0000	1.0000	19.0000	656.0000	
0.4696	0.3769	15.0000	1.0000	1.0000	358.0000	316.0000	
0.5719	0.3828	15.0000	2.0000	1.0000	27.0000	262.0000	384.0000	
0.2252	0.4212	15.0000	1.0000	2.0000	522.0000	47.0000	100.0000	
0.9541	0.4091	15.0000	1.0000	1.0000	31.0000	644.0000	
0.9630	0.3889	15.0000	1.0000	1.0000	25.0000	650.0000	
0.9511	0.3750	15.0000	1.0000	1.0000	33.0000	642.0000	
0.2978	0.4320	15.0000	1.0000	1.0000	474.0000	199.0000	
0.9526	0.3913	15.0000	1.0000	1.0000	32.0000	643.0000	
0.9659	0.4375	15.0000	1.0000	1.0000	23.0000	652.0000	
0.4326	0.3777	15.0000	1.0000	1.0000	383.0000	290.0000	
0.4963	0.3710	15.0000	1.0000	1.0000	340.0000	333.0000	
0.4356	0.4216	15.0000	1.0000	1.0000	381.0000	293.0000	
0.9585	0.4000	15.0000	1.0000	1.0000	28.0000	647.0000	
0.5007	0.3589	15.0000	1.0000	1.0000	337.0000	335.0000	
0.3793	0.4060	15.0000	1.0000	1.0000	419.0000	254.0000	
0.4400	0.4318	15.0000	1.0000	1.0000	378.0000	296.0000	
0.9719	0.5833	15.0000	1.0000	1.0000	19.0000	656.0000	
0.7215	0.3723	15.0000	1.0000	1.0000	188.0000	486.0000	
0.4933	0.3790	15.0000	1.0000	1.0000	342.0000	331.0000	
0.5081	0.3496	15.0000	1.0000	1.0000	332.0000	343.0000	
0.9630	0.4706	15.0000	1.0000	1.0000	25.0000	650.0000	
0.3852	0.3474	15.0000	1.0000	1.0000	414.0000	258.0000	
0.6504	0.3563	15.0000	2.0000	1.0000	33.0000	203.0000	439.0000	
0.3970	0.4231	15.0000	1.0000	1.0000	407.0000	268.0000	
0.9437	0.3571	15.0000	1.0000	1.0000	38.0000	637.0000	
0.7541	0.3719	15.0000	1.0000	1.0000	166.0000	509.0000	
0.9541	0.3478	15.0000	1.0000	1.0000	31.0000	644.0000	
0.5052	0.3975	15.0000	1.0000	1.0000	334.0000	341.0000	
0.9496	0.4167	15.0000	1.0000	1.0000	34.0000	641.0000	
0.3067	0.4054	15.0000	1.0000	2.0000	467.0000	64.0000	140.0000	
0.2993	0.4119	15.0000	1.0000	1.0000	473.0000	199.0000	
0.9333	0.3235	15.0000	1.0000	1.0000	45.0000	629.0000	
0.9393	0.3667	15.0000	1.0000	1.0000	41.0000	634.0000	
0.9422	0.3929	15.0000	1.0000	1.0000	39.0000	636.0000	
0.9570	0.4500	15.0000	1.0000	1.0000	29.0000	646.0000	
0.9422	0.3448	15.0000	1.0000	1.0000	39.0000	636.0000	
0.3274	0.4056	15.0000	1.0000	2.0000	453.0000	7.0000	210.0000	
0.9289	0.3714	15.0000	1.0000	1.0000	48.0000	627.0000	
0.9496	0.3077	15.0000	1.0000	1.0000	31.0000	641.0000	
0.3230	0.4018	15.0000	1.0000	1.0000	457.0000	216.0000	
0.3452	0.3856	15.0000	1.0000	2.0000	442.0000	104.0000	124.0000	
0.5867	0.3812	15.0000	1.0000	1.0000	279.0000	396.0000	
0.5052	0.3633	15.0000	1.0000	1.0000	334.0000	339.0000	
0.3970	0.4034	15.0000	1.0000	1.0000	407.0000	268.0000	
0.4400	0.3897	15.0000	1.0000	1.0000	378.0000	290.0000	
0.9541	0.3478	15.0000	1.0000	1.0000	31.0000	644.0000	
0.9363	0.3438	15.0000	1.0000	1.0000	43.0000	632.0000	
0.4741	0.3813	15.0000	2.0000	1.0000	31.0000	324.0000	318.0000	
0.9659	0.4375	15.0000	1.0000	1.0000	23.0000	652.0000	
0.4770	0.3953	15.0000	1.0000	1.0000	353.0000	320.0000	
0.9659	0.5333	15.0000	1.0000	1.0000	23.0000	652.0000	
0.5911	0.3529	15.0000	2.0000	1.0000	35.0000	241.0000	399.0000	
0.5748	0.3732	15.0000	1.0000	1.0000	283.0000	386.0000	
0.4119	0.3881	15.0000	1.0000	1.0000	397.0000	275.0000	
0.4207	0.3915	15.0000	1.0000	2.0000	391.0000	44.0000	237.0000	
0.5052	0.4093	15.0000	1.0000	1.0000	334.0000	340.0000	
0.9274	0.3243	15.0000	1.0000	1.0000	49.0000	625.0000	
0.2874	0.4273	15.0000	1.0000	1.0000	481.0000	192.0000	
0.9659	0.4375	15.0000	1.0000	1.0000	23.0000	652.0000	
0.3156	0.4128	15.0000	1.0000	1.0000	462.0000	213.0000	
0.2948	0.4167	15.0000	1.0000	2.0000	476.0000	72.0000	125.0000	
0.3348	0.4254	15.0000	1.0000	1.0000	449.0000	226.0000	
0.5422	0.3612	15.0000	1.0000	1.0000	309.0000	365.0000	
0.4281	0.3986	15.0000	1.0000	1.0000	386.0000	286.0000	
0.9674	0.5714	15.0000	1.0000	1.0000	22.0000	653.0000	
0.3496	0.4026	15.0000	1.0000	2.0000	439.0000	77.0000	156.0000	
0.9659	0.4375	15.0000	1.0000	1.0000	22.0000	652.0000	
0.5837	0.3575	15.0000	2.0000	1.0000	27.0000	254.0000	393.0000	
0.4252	0.4007	15.0000	1.0000	1.0000	388.0000	287.0000	
0.9630	0.3889	15.0000	1.0000	1.0000	25.0000	650.0000	
0.9452	0.3704	15.0000	1.0000	1.0000	37.0000	638.0000	
0.9496	0.3077	15.0000	1.0000	1.0000	34.0000	641.0000	
0.9674	0.4667	15.0000	1.0000	1.0000	22.0000	653.0000	
0.9674	0.5714	15.0000	1.0000	1.0000	22.0000	653.0000	
0.9511	0.3200	15.0000	1.0000	1.0000	33.0000	642.0000	
0.9422	0.3929	15.0000	1.0000	1.0000	39.0000	636.0000	
0.4030	0.3801	15.0000	1.0000	1.0000	403.0000	269.0000	
0.9570	0.3810	15.0000	1.0000	1.0000	29.0000	646.0000	
0.6119	0.3717	15.0000	2.0000	1.0000	25.0000	237.0000	410.0000	
0.6415	0.3596	15.0000	1.0000	1.0000	242.0000	430.0000	
0.4533	0.3872	15.0000	1.0000	1.0000	368.0000	305.0000	
0.9585	0.4000	15.0000	1.0000	1.0000	28.0000	647.0000	
0.9600	0.3500	15.0000	1.0000	1.0000	27.0000	648.0000	
0.4015	0.3883	15.0000	1.0000	2.0000	404.0000	41.0000	226.0000	
0.9659	0.4375	15.0000	1.0000	1.0000	23.0000	652.0000	
0.9393	0.3226	15.0000	1.0000	1.0000	41.0000	634.0000	
0.9630	0.5625	15.0000	1.0000	1.0000	25.0000	650.0000	
0.5126	0.3824	15.0000	1.0000	1.0000	329.0000	343.0000	
0.9644	0.4118	15.0000	1.0000	1.0000	24.0000	651.0000	
0.4133	0.4043	15.0000	1.0000	1.0000	396.0000	278.0000	
0.9630	0.3889	15.0000	1.0000	1.0000	25.0000	650.0000	
0.4430	0.4297	15.0000	1.0000	1.0000	376.0000	297.0000	
0.5067	0.3704	15.0000	1.0000	1.0000	333.0000	340.0000	
0.6830	0.3210	15.0000	2.0000	1.0000	62.0000	152.0000	460.0000	
0.9481	0.2963	15.0000	1.0000	1.0000	35.0000	640.0000	
0.9319	0.3529	15.0000	1.0000	1.0000	46.0000	629.0000	
0.6637	0.3841	15.0000	1.0000	1.0000	227.0000	447.0000	
0.6859	0.3766	15.0000	2.0000	1.0000	51.0000	161.0000	462.0000	
0.5644	0.3674	15.0000	2.0000	1.0000	31.0000	263.0000	380.0000	
0.9511	0.3750	15.0000	1.0000	1.0000	33.0000	642.0000	
0.9511	0.4348	15.0000	1.0000	1.0000	32.0000	642.0000	
0.9289	0.2973	15.0000	1.0000	1.0000	48.0000	627.0000	
0.9511	0.3750	15.0000	1.0000	1.0000	33.0000	642.0000	
0.2859	0.4345	15.0000	1.0000	1.0000	482.0000	191.0000	
0.4015	0.4276	15.0000	1.0000	1.0000	404.0000	269.0000	
0.9467	0.3333	15.0000	1.0000	1.0000	36.0000	639.0000	
0.9644	0.5000	15.0000	1.0000	1.0000	24.0000	651.0000	
0.9600	0.3500	15.0000	1.0000	1.0000	27.0000	648.0000	
0.4178	0.3789	15.0000	1.0000	2.0000	393.0000	69.0000	211.0000	
0.3852	0.3696	15.0000	1.0000	2.0000	415.0000	41.0000	212.0000	
0.4267	0.4176	15.0000	1.0000	2.0000	387.0000	55.0000	231.0000	
0.9333	0.3636	15.0000	1.0000	1.0000	45.0000	630.0000	
0.9274	0.3243	15.0000	1.0000	1.0000	49.0000	626.0000	
0.9511	0.3750	15.0000	1.0000	1.0000	33.0000	642.0000	
0.9452	0.3704	15.0000	1.0000	1.0000	37.0000	638.0000	
0.5437	0.3812	15.0000	2.0000	1.0000	27.0000	281.0000	365.0000	
0.9437	0.3103	15.0000	1.0000	1.0000	38.0000	637.0000	
0.9378	0.3125	15.0000	1.0000	1.0000	42.0000	633.0000	
0.3763	0.4223	15.0000	1.0000	1.0000	421.0000	252.0000	
0.9378	0.4000	15.0000	1.0000	1.0000	42.0000	633.0000	
0.3111	0.4048	15.0000	1.0000	1.0000	465.0000	206.0000	
0.4563	0.3902	15.0000	2.0000	1.0000	29.0000	338.0000	307.0000	
0.3185	0.4330	15.0000	1.0000	1.0000	460.0000	213.0000	
0.3452	0.3987	15.0000	1.0000	2.0000	441.0000	7.0000	219.0000	
0.4770	0.4467	15.0000	1.0000	1.0000	353.0000	322.0000	
0.9704	0.5385	15.0000	1.0000	1.0000	20.0000	655.0000	
0.4859	0.3992	15.0000	1.0000	1.0000	347.0000	328.0000	
0.6963	0.3399	15.0000	2.0000	1.0000	80.0000	125.0000	468.0000	
0.4622	0.3855	15.0000	1.0000	2.0000	363.0000	135.0000	176.0000	
0.9541	0.3478	15.0000	1.0000	1.0000	31.0000	644.0000	
0.9556	0.4286	15.0000	1.0000	1.0000	30.0000	645.0000	
0.4415	0.4173	15.0000	1.0000	1.0000	377.0000	297.0000	
0.9437	0.3571	15.0000	1.0000	1.0000	38.0000	637.0000	
0.9570	0.3810	15.0000	1.0000	1.0000	29.0000	646.0000	
0.9333	0.2857	15.0000	1.0000	1.0000	45.0000	630.0000	
0.5541	0.3807	15.0000	2.0000	1.0000	45.0000	256.0000	373.0000	
0.3007	0.4048	15.0000	1.0000	2.0000	472.0000	33.0000	166.0000	
0.9467	0.3333	15.0000	1.0000	1.0000	36.0000	639.0000	
0.4385	0.3732	15.0000	1.0000	2.0000	379.0000	90.0000	204.0000	
0.4415	0.3963	15.0000	1.0000	1.0000	377.0000	296.0000	
0.9333	0.2857	15.0000	1.0000	1.0000	45.0000	630.0000	
0.4904	0.3597	15.0000	1.0000	2.0000	344.0000	74.0000	255.0000	
0.9541	0.3478	15.0000	1.0000	1.0000	31.0000	644.0000	
0.6681	0.3742	15.0000	1.0000	1.0000	224.0000	451.0000	
0.6074	0.3731	15.0000	2.0000	1.0000	49.0000	216.0000	409.0000	
0.5556	0.3453	15.0000	1.0000	1.0000	300.0000	374.0000	
0.9452	0.3704	15.0000	1.0000	1.0000	37.0000	638.0000	
0.9333	0.3235	15.0000	1.0000	1.0000	45.0000	630.0000	
0.2489	0.4611	15.0000	1.0000	2.0000	507.0000	66.0000	100.0000	
0.9630	0.3889	15.0000	1.0000	1.0000	25.0000	650.0000	
0.9422	0.3448	15.0000	1.0000	1.0000	39.0000	636.0000	
0.9452	0.3214	15.0000	1.0000	1.0000	37.0000	638.0000	
0.6800	0.3500	15.0000	2.0000	1.0000	57.0000	159.0000	458.0000	
0.9570	0.3810	15.0000	1.0000	1.0000	29.0000	646.0000	
0.4622	0.3802	15.0000	1.0000	1.0000	363.0000	311.0000	
0.5556	0.3825	15.0000	1.0000	1.0000	300.0000	374.0000	
0.3467	0.4045	15.0000	1.0000	1.0000	441.0000	232.0000	
0.5793	0.3854	15.0000	1.0000	1.0000	284.0000	390.0000	
0.9526	0.3333	15.0000	1.0000	1.0000	32.0000	643.0000	
0.6489	0.3315	15.0000	3.0000	1.0000	39.0000	62.0000	136.0000	438.0000	
0.9526	0.3333	15.0000	1.0000	1.0000	32.0000	643.0000	
0.9511	0.3750	15.0000	1.0000	1.0000	33.0000	642.0000	
0.9526	0.3333	15.0000	1.0000	1.0000	32.0000	643.0000	
0.9511	0.3750	15.0000	1.0000	1.0000	33.0000	642.0000	
0.9644	0.4118	15.0000	1.0000	1.0000	24.0000	651.0000	
0.9452	0.3214	15.0000	1.0000	1.0000	37.0000	638.0000	
0.9363	0.3030	15.0000	1.0000	1.0000	43.0000	632.0000	
0.9511	0.3750	15.0000	1.0000	1.0000	33.0000	642.0000	
0.9511	0.3750	15.0000	1.0000	1.0000	33.0000	642.0000	
0.3778	0.4047	15.0000	1.0000	1.0000	420.0000	253.0000	
0.3259	0.3957	15.0000	1.0000	2.0000	455.0000	50.0000	169.0000	
0.9452	0.3704	15.0000	1.0000	1.0000	37.0000	638.0000	
0.6059	0.3641	15.0000	1.0000	1.0000	266.0000	407.0000	
0.9600	0.3500	15.0000	1.0000	1.0000	27.0000	648.0000	
0.9704	0.6667	15.0000	1.0000	1.0000	20.0000	655.0000	
0.4489	0.3829	15.0000	1.0000	1.0000	372.0000	302.0000	
0.5185	0.3889	15.0000	2.0000	1.0000	25.0000	300.0000	349.0000	
0.7793	0.3186	15.0000	3.0000	1.0000	31.0000	51.0000	67.0000	526.0000	
0.9644	0.5000	15.0000	1.0000	1.0000	24.0000	651.0000	
0.9467	0.3333	15.0000	1.0000	1.0000	36.0000	639.0000	
0.4622	0.3855	15.0000	1.0000	1.0000	363.0000	311.0000	
0.9289	0.3333	15.0000	1.0000	1.0000	48.0000	627.0000	
0.4711	0.3837	15.0000	1.0000	1.0000	357.0000	317.0000	
0.9467	0.3333	15.0000	1.0000	1.0000	36.0000	639.0000	
0.9348	0.3333	15.0000	1.0000	1.0000	44.0000	631.0000	
0.4533	0.3925	15.0000	1.0000	1.0000	368.0000	304.0000	
0.3615	0.3994	15.0000	1.0000	2.0000	431.0000	54.0000	184.0000	
0.9659	0.4375	15.0000	1.0000	1.0000	23.0000	652.0000	
0.4178	0.4343	15.0000	1.0000	1.0000	393.0000	277.0000	
0.9407	0.3333	15.0000	1.0000	1.0000	40.0000	635.0000	
0.9333	0.3636	15.0000	1.0000	1.0000	45.0000	630.0000	
0.5141	0.3667	15.0000	2.0000	1.0000	52.0000	275.0000	346.0000	
0.9422	0.3448	15.0000	1.0000	1.0000	39.0000	636.0000	
0.9615	0.4444	15.0000	1.0000	1.0000	26.0000	649.0000	
0.9585	0.4000	15.0000	1.0000	1.0000	28.0000	647.0000	
0.9556	0.3636	15.0000	1.0000	1.0000	30.0000	645.0000	
0.4593	0.3619	15.0000	1.0000	1.0000	365.0000	307.0000	
0.9541	0.4091	15.0000	1.0000	1.0000	31.0000	644.0000	
0.5822	0.3960	15.0000	1.0000	1.0000	281.0000	392.0000	
0.9600	0.3500	15.0000	1.0000	1.0000	27.0000	648.0000	
0.2993	0.4036	15.0000	1.0000	1.0000	473.0000	198.0000	
0.4726	0.3906	15.0000	1.0000	1.0000	356.0000	317.0000	
0.9170	0.3333	15.0000	1.0000	1.0000	56.0000	619.0000	
0.9437	0.3103	15.0000	1.0000	1.0000	38.0000	637.0000	
0.5437	0.3874	15.0000	1.0000	1.0000	308.0000	366.0000	
0.1215	0.4678	15.0000	1.0000	2.0000	593.0000	40.0000	40.0000	
0.9481	0.3462	15.0000	1.0000	1.0000	35.0000	640.0000	
0.5793	0.3524	15.0000	1.0000	1.0000	284.0000	388.0000	
0.9363	0.3030	15.0000	1.0000	1.0000	43.0000	632.0000	
0.9156	0.2955	15.0000	1.0000	1.0000	57.0000	618.0000	
0.6385	0.3407	15.0000	1.0000	1.0000	244.0000	427.0000	
0.9156	0.3256	15.0000	1.0000	1.0000	57.0000	618.0000	
0.5941	0.3431	15.0000	2.0000	1.0000	61.0000	213.0000	398.0000	
0.9230	0.3684	15.0000	1.0000	1.0000	52.0000	623.0000	
0.9570	0.3810	15.0000	1.0000	1.0000	29.0000	646.0000	
0.6252	0.3978	15.0000	2.0000	1.0000	24.0000	229.0000	422.0000	
0.9496	0.3077	15.0000	1.0000	1.0000	34.0000	641.0000	
0.1793	0.4427	15.0000	1.0000	1.0000	554.0000	118.0000	
0.9570	0.3182	15.0000	1.0000	1.0000	29.0000	646.0000	
0.2770	0.4395	15.0000	1.0000	1.0000	488.0000	184.0000	
0.5511	0.3773	15.0000	1.0000	1.0000	303.0000	372.0000	
0.3719	0.3902	15.0000	1.0000	1.0000	424.0000	248.0000	
0.6059	0.3234	15.0000	2.0000	1.0000	107.0000	159.0000	407.0000	
0.5556	0.3953	15.0000	2.0000	1.0000	38.0000	262.0000	374.0000	
0.9556	0.3636	15.0000	1.0000	1.0000	30.0000	645.0000	
0.9496	0.3077	15.0000	1.0000	1.0000	34.0000	641.0000	
0.9348	0.2941	15.0000	1.0000	1.0000	44.0000	631.0000	
0.9333	0.3235	15.0000	1.0000	1.0000	45.0000	630.0000	
0.9570	0.3810	15.0000	1.0000	1.0000	29.0000	646.0000	
0.4400	0.3846	15.0000	1.0000	1.0000	378.0000	295.0000	
0.5022	0.3659	15.0000	1.0000	1.0000	336.0000	333.0000	
0.3541	0.3930	15.0000	1.0000	2.0000	436.0000	34.0000	202.0000	
0.5956	0.3858	15.0000	1.0000	1.0000	273.0000	402.0000	
0.9007	0.3137	15.0000	1.0000	1.0000	67.0000	608.0000	
0.9541	0.4762	15.0000	1.0000	1.0000	31.0000	644.0000	
0.9289	0.3333	15.0000	1.0000	1.0000	48.0000	627.0000	
0.2444	0.4407	15.0000	1.0000	2.0000	510.0000	51.0000	114.0000	
0.9348	0.2941	15.0000	1.0000	1.0000	44.0000	631.0000	
0.4963	0.3439	15.0000	1.0000	1.0000	340.0000	333.0000	
0.9600	0.3500	15.0000	1.0000	1.0000	27.0000	648.0000	
0.9393	0.3667	15.0000	1.0000	1.0000	41.0000	634.0000	
0.3956	0.3878	15.0000	1.0000	1.0000	408.0000	266.0000	
0.9467	0.3846	15.0000	1.0000	1.0000	36.0000	639.0000	
0.2919	0.4269	15.0000	1.0000	2.0000	478.0000	94.0000	100.0000	
0.9452	0.4231	15.0000	1.0000	1.0000	37.0000	638.0000	
0.9259	0.3158	15.0000	1.0000	1.0000	50.0000	625.0000	
0.3704	0.3844	15.0000	1.0000	1.0000	425.0000	245.0000	
0.3911	0.3980	15.0000	1.0000	1.0000	411.0000	261.0000	
0.7644	0.3250	15.0000	3.0000	1.0000	26.0000	31.0000	101.0000	515.0000	
0.9526	0.3333	15.0000	1.0000	1.0000	32.0000	643.0000	
0.9541	0.3478	15.0000	1.0000	1.0000	31.0000	644.0000	
0.2519	0.4387	15.0000	1.0000	2.0000	505.0000	68.0000	97.0000	
0.6415	0.3750	15.0000	1.0000	1.0000	242.0000	433.0000	
0.9630	0.3889	15.0000	1.0000	1.0000	25.0000	650.0000	
0.9274	0.3243	15.0000	1.0000	1.0000	49.0000	626.0000	
0.4933	0.3790	15.0000	2.0000	1.0000	31.0000	310.0000	333.0000	
0.9659	0.5333	15.0000	1.0000	1.0000	23.0000	652.0000	
0.9689	0.5000	15.0000	1.0000	1.0000	21.0000	654.0000	
0.9600	0.3500	15.0000	1.0000	1.0000	27.0000	648.0000	
0.5111	0.3983	15.0000	1.0000	1.0000	330.0000	343.0000	
0.9511	0.3750	15.0000	1.0000	1.0000	33.0000	642.0000	
0.9319	0.4375	15.0000	1.0000	1.0000	46.0000	629.0000	
0.2089	0.4355	15.0000	1.0000	1.0000	534.0000	135.0000	
0.4919	0.3557	15.0000	1.0000	1.0000	343.0000	331.0000	
0.9467	0.2857	15.0000	1.0000	1.0000	36.0000	639.0000	
0.9644	0.5000	15.0000	1.0000	1.0000	24.0000	651.0000	
0.9659	0.4375	15.0000	1.0000	1.0000	23.0000	652.0000	
0.9570	0.3182	15.0000	1.0000	1.0000	29.0000	646.0000	
0.9570	0.3182	15.0000	1.0000	1.0000	29.0000	646.0000	
0.3141	0.3988	15.0000	1.0000	1.0000	463.0000	209.0000	
0.9541	0.3478	15.0000	1.0000	1.0000	31.0000	644.0000	
0.9452	0.3704	15.0000	1.0000	1.0000	37.0000	638.0000	
0.9496	0.3600	15.0000	1.0000	1.0000	34.0000	641.0000	
0.4015	0.3931	15.0000	1.0000	1.0000	404.0000	270.0000	
0.4681	0.3915	15.0000	1.0000	1.0000	359.0000	316.0000	
0.6311	0.3459	15.0000	1.0000	1.0000	249.0000	426.0000	
0.3719	0.3722	15.0000	1.0000	2.0000	424.0000	97.0000	150.0000	
0.9659	0.4375	15.0000	1.0000	1.0000	23.0000	652.0000	
0.9541	0.3478	15.0000	1.0000	1.0000	31.0000	644.0000	
0.3852	0.4116	15.0000	1.0000	1.0000	415.0000	257.0000	
0.6089	0.3822	15.0000	1.0000	1.0000	264.0000	406.0000	
0.9511	0.3750	15.0000	1.0000	1.0000	33.0000	642.0000	
0.9393	0.3667	15.0000	1.0000	1.0000	41.0000	634.0000	
0.5052	0.3522	15.0000	1.0000	1.0000	334.0000	335.0000	
0.5630	0.3657	15.0000	1.0000	1.0000	295.0000	380.0000	
0.3985	0.3810	15.0000	1.0000	2.0000	406.0000	38.0000	230.0000	
0.4519	0.3653	15.0000	1.0000	1.0000	370.0000	303.0000	
0.3674	0.4186	15.0000	1.0000	2.0000	427.0000	38.0000	207.0000	
0.9452	0.3704	15.0000	1.0000	1.0000	37.0000	638.0000	
0.9630	0.3889	15.0000	1.0000	1.0000	25.0000	650.0000	
0.9600	0.5000	15.0000	1.0000	1.0000	27.0000	648.0000	
0.9541	0.4762	15.0000	1.0000	1.0000	31.0000	644.0000	
0.9585	0.4000	15.0000	1.0000	1.0000	28.0000	647.0000	
0.4489	0.3985	15.0000	1.0000	1.0000	372.0000	302.0000	
0.9481	0.3462	15.0000	1.0000	1.0000	35.0000	640.0000	
0.4519	0.3858	15.0000	2.0000	1.0000	27.0000	343.0000	303.0000	
0.3126	0.4018	15.0000	1.0000	1.0000	464.0000	210.0000	
0.8993	0.3333	15.0000	1.0000	1.0000	68.0000	607.0000	
0.5822	0.3623	15.0000	1.0000	1.0000	282.0000	393.0000	
0.2237	0.4239	15.0000	1.0000	2.0000	524.0000	58.0000	92.0000	
0.9748	0.7000	15.0000	1.0000	1.0000	17.0000	658.0000	
0.2696	0.4207	15.0000	1.0000	1.0000	493.0000	178.0000	
0.9733	0.6364	15.0000	1.0000	1.0000	18.0000	657.0000	
0.4237	0.3993	15.0000	1.0000	1.0000	389.0000	283.0000	
0.4904	0.3760	15.0000	1.0000	1.0000	344.0000	330.0000	
0.6089	0.3968	15.0000	2.0000	1.0000	34.0000	230.0000	411.0000	
0.9393	0.3667	15.0000	1.0000	1.0000	41.0000	634.0000	
0.4711	0.4055	15.0000	1.0000	1.0000	357.0000	317.0000	
0.9496	0.3077	15.0000	1.0000	1.0000	34.0000	641.0000	
0.9659	0.4375	15.0000	1.0000	1.0000	23.0000	652.0000	
0.9541	0.4091	15.0000	1.0000	1.0000	31.0000	644.0000	
0.9630	0.3889	15.0000	1.0000	1.0000	25.0000	650.0000	
0.6963	0.3487	15.0000	1.0000	1.0000	205.0000	469.0000	
0.2519	0.4225	15.0000	1.0000	1.0000	505.0000	167.0000	
0.9378	0.3125	15.0000	1.0000	1.0000	42.0000	633.0000	
0.3585	0.4197	15.0000	1.0000	2.0000	433.0000	56.0000	184.0000	
0.9393	0.3667	15.0000	1.0000	1.0000	41.0000	634.0000	
0.4963	0.3992	15.0000	2.0000	1.0000	29.0000	311.0000	333.0000	
0.3807	0.4266	15.0000	1.0000	1.0000	418.0000	255.0000	
0.9481	0.2963	15.0000	1.0000	1.0000	35.0000	640.0000	
0.9541	0.3478	15.0000	1.0000	1.0000	31.0000	644.0000	
0.9407	0.3333	15.0000	1.0000	1.0000	40.0000	635.0000	
0.5022	0.3827	15.0000	1.0000	2.0000	336.0000	52.0000	286.0000	
0.4059	0.3875	15.0000	1.0000	1.0000	401.0000	273.0000	
0.9674	0.4667	15.0000	1.0000	1.0000	22.0000	653.0000	
0.5763	0.3883	15.0000	1.0000	1.0000	286.0000	389.0000	
0.9570	0.3810	15.0000	1.0000	1.0000	29.0000	646.0000	
0.9407	0.3793	15.0000	1.0000	1.0000	40.0000	635.0000	
0.9289	0.2973	15.0000	1.0000	1.0000	48.0000	627.0000	
0.4681	0.4023	15.0000	1.0000	1.0000	359.0000	315.0000	
0.5822	0.3558	15.0000	1.0000	1.0000	282.0000	393.0000	
0.4296	0.3849	15.0000	1.0000	1.0000	385.0000	288.0000	
0.9541	0.3478	15.0000	1.0000	1.0000	31.0000	644.0000	
0.9452	0.3214	15.0000	1.0000	1.0000	37.0000	638.0000	
0.9600	0.3500	15.0000	1.0000	1.0000	27.0000	648.0000	
0.4281	0.3986	15.0000	1.0000	1.0000	386.0000	286.0000	
0.4830	0.3527	15.0000	3.0000	1.0000	31.0000	35.0000	283.0000	324.0000	
0.9615	0.4444	15.0000	1.0000	1.0000	26.0000	649.0000	
0.9526	0.3333	15.0000	1.0000	1.0000	32.0000	643.0000	
0.9541	0.3478	15.0000	1.0000	1.0000	31.0000	644.0000	
0.4874	0.4008	15.0000	1.0000	1.0000	346.0000	327.0000	
0.9170	0.3023	15.0000	1.0000	1.0000	56.0000	619.0000	
0.9363	0.3438	15.0000	1.0000	1.0000	43.0000	632.0000	
0.9407	0.3793	15.0000	1.0000	1.0000	40.0000	635.0000	
0.9600	0.3500	15.0000	1.0000	1.0000	27.0000	648.0000	
0.3417	0.4183	20.0000	1.0000	2.0000	790.0000	164.0000	241.0000	
0.5633	0.3610	20.0000	2.0000	2.0000	74.0000	450.0000	8.0000	667.0000	
0.9842	0.5833	20.0000	1.0000	1.0000	19.0000	1181.0000	
0.4625	0.3665	20.0000	1.0000	1.0000	645.0000	552.0000	
0.9650	0.3125	20.0000	1.0000	1.0000	42.0000	1158.0000	
0.5392	0.3929	20.0000	1.0000	1.0000	553.0000	644.0000	
0.3117	0.4315	20.0000	1.0000	1.0000	826.0000	371.0000	
0.6158	0.3519	20.0000	4.0000	1.0000	24.0000	30.0000	60.0000	347.0000	739.0000	
0.4892	0.3900	20.0000	1.0000	1.0000	613.0000	583.0000	
0.4383	0.4071	20.0000	1.0000	1.0000	674.0000	520.0000	
0.3133	0.4110	20.0000	1.0000	2.0000	824.0000	113.0000	259.0000	
0.9642	0.3438	20.0000	1.0000	1.0000	43.0000	1157.0000	
0.3642	0.4315	20.0000	1.0000	2.0000	763.0000	50.0000	380.0000	
0.3983	0.3858	20.0000	1.0000	1.0000	722.0000	472.0000	
0.9675	0.3929	20.0000	1.0000	1.0000	39.0000	1161.0000	
0.9642	0.3438	20.0000	1.0000	1.0000	43.0000	1157.0000	
0.3500	0.4182	20.0000	1.0000	1.0000	780.0000	420.0000	
0.4517	0.3911	20.0000	1.0000	1.0000	658.0000	539.0000	
0.9758	0.3810	20.0000	1.0000	1.0000	29.0000	1171.0000	
0.9667	0.4286	20.0000	1.0000	1.0000	40.0000	1160.0000	
0.9625	0.3636	20.0000	1.0000	1.0000	45.0000	1154.0000	
0.4683	0.3961	20.0000	2.0000	1.0000	33.0000	605.0000	559.0000	
0.9675	0.3448	20.0000	1.0000	1.0000	39.0000	1161.0000	
0.5292	0.3780	20.0000	2.0000	1.0000	26.0000	539.0000	631.0000	
0.9708	0.3462	20.0000	1.0000	1.0000	35.0000	1165.0000	
0.4617	0.3863	20.0000	2.0000	1.0000	35.0000	611.0000	552.0000	
0.4650	0.4017	20.0000	1.0000	1.0000	642.0000	554.0000	
0.9733	0.3913	20.0000	1.0000	1.0000	32.0000	1168.0000	
0.3217	0.4331	20.0000	1.0000	1.0000	814.0000	383.0000	
0.4750	0.3938	20.0000	1.0000	1.0000	630.0000	568.0000	
0.9792	0.3889	20.0000	1.0000	1.0000	25.0000	1175.0000	
0.9700	0.3333	20.0000	1.0000	1.0000	36.0000	1164.0000	
0.9675	0.3929	20.0000	1.0000	1.0000	39.0000	1161.0000	
0.9725	0.4348	20.0000	1.0000	1.0000	33.0000	1167.0000	
0.5283	0.3606	20.0000	2.0000	2.0000	63.0000	503.0000	62.0000	571.0000	
0.5125	0.3700	20.0000	1.0000	1.0000	585.0000	614.0000	
0.4308	0.3939	20.0000	1.0000	2.0000	683.0000	48.0000	464.0000	
0.5242	0.4029	20.0000	1.0000	1.0000	571.0000	626.0000	
0.3817	0.4000	20.0000	1.0000	2.0000	742.0000	86.0000	362.0000	
0.3533	0.3982	20.0000	1.0000	3.0000	776.0000	84.0000	120.0000	217.0000	
0.4750	0.3786	20.0000	1.0000	1.0000	630.0000	566.0000	
0.9833	0.5385	20.0000	1.0000	1.0000	20.0000	1180.0000	
0.3008	0.3960	20.0000	1.0000	2.0000	839.0000	52.0000	302.0000	
0.9800	0.6000	20.0000	1.0000	1.0000	24.0000	1176.0000	
0.4675	0.3772	20.0000	2.0000	1.0000	143.0000	496.0000	554.0000	
0.9808	0.4375	20.0000	1.0000	1.0000	23.0000	1177.0000	
0.9742	0.3478	20.0000	1.0000	1.0000	31.0000	1169.0000	
0.5158	0.3671	20.0000	1.0000	1.0000	581.0000	615.0000	
0.9767	0.4000	20.0000	1.0000	1.0000	28.0000	1172.0000	
0.9742	0.3478	20.0000	1.0000	1.0000	31.0000	1169.0000	
0.2942	0.4235	20.0000	1.0000	2.0000	847.0000	49.0000	300.0000	
0.3942	0.4008	20.0000	1.0000	2.0000	727.0000	34.0000	436.0000	
0.4067	0.4016	20.0000	1.0000	1.0000	711.0000	481.0000	
0.9692	0.3214	20.0000	1.0000	1.0000	37.0000	1163.0000	
0.3167	0.4162	20.0000	1.0000	3.0000	820.0000	8.0000	98.0000	271.0000	
0.9675	0.3448	20.0000	1.0000	1.0000	39.0000	1161.0000	
0.4058	0.3872	20.0000	1.0000	3.0000	713.0000	150.0000	156.0000	177.0000	
0.5708	0.3881	20.0000	2.0000	1.0000	88.0000	427.0000	681.0000	
0.9642	0.3438	20.0000	1.0000	1.0000	43.0000	1157.0000	
0.5450	0.3582	20.0000	1.0000	1.0000	546.0000	652.0000	
0.9725	0.3750	20.0000	1.0000	1.0000	33.0000	1167.0000	
0.4983	0.3498	20.0000	1.0000	1.0000	602.0000	593.0000	
0.5000	0.3825	20.0000	1.0000	1.0000	600.0000	594.0000	
0.3517	0.4120	20.0000	1.0000	2.0000	778.0000	185.0000	234.0000	
0.4883	0.3829	20.0000	2.0000	1.0000	82.0000	532.0000	582.0000	
0.9708	0.3462	20.0000	1.0000	1.0000	35.0000	1165.0000	
0.9492	0.2979	20.0000	1.0000	1.0000	61.0000	1139.0000	
0.9708	0.3462	20.0000	1.0000	1.0000	35.0000	1165.0000	
0.4617	0.3952	20.0000	2.0000	1.0000	27.0000	619.0000	551.0000	
0.3133	0.4306	20.0000	1.0000	1.0000	824.0000	366.0000	
0.4992	0.3816	20.0000	1.0000	1.0000	601.0000	594.0000	
0.4250	0.3968	20.0000	1.0000	2.0000	690.0000	114.0000	393.0000	
0.9667	0.3333	20.0000	1.0000	1.0000	40.0000	1160.0000	
0.4408	0.4186	20.0000	1.0000	1.0000	671.0000	529.0000	
0.3875	0.4027	20.0000	1.0000	2.0000	735.0000	43.0000	421.0000	
0.9750	0.3636	20.0000	1.0000	1.0000	30.0000	1170.0000	
0.4533	0.4077	20.0000	1.0000	1.0000	656.0000	542.0000	
0.5133	0.3839	20.0000	2.0000	1.0000	31.0000	553.0000	614.0000	
0.9667	0.3333	20.0000	1.0000	1.0000	40.0000	1160.0000	
0.9750	0.3636	20.0000	1.0000	1.0000	30.0000	1170.0000	
0.4142	0.3704	20.0000	1.0000	2.0000	703.0000	57.0000	431.0000	
0.3875	0.4189	20.0000	1.0000	1.0000	735.0000	461.0000	
0.4533	0.4017	20.0000	1.0000	2.0000	656.0000	106.0000	433.0000	
0.3617	0.4004	20.0000	1.0000	1.0000	766.0000	433.0000	
0.5425	0.3623	20.0000	2.0000	2.0000	37.0000	512.0000	84.0000	567.0000	
0.4333	0.4108	20.0000	1.0000	2.0000	680.0000	59.0000	457.0000	
0.5658	0.3930	20.0000	1.0000	1.0000	521.0000	676.0000	
0.4583	0.4009	20.0000	1.0000	1.0000	650.0000	545.0000	
0.5233	0.3951	20.0000	2.0000	1.0000	34.0000	538.0000	627.0000	
0.9492	0.2979	20.0000	1.0000	1.0000	61.0000	1139.0000	
0.5425	0.3794	20.0000	2.0000	1.0000	82.0000	467.0000	649.0000	
0.2408	0.4392	20.0000	1.0000	4.0000	911.0000	34.0000	71.0000	82.0000	97.0000	
0.9808	0.4375	20.0000	1.0000	1.0000	23.0000	1177.0000	
0.5883	0.3609	20.0000	2.0000	1.0000	192.0000	302.0000	697.0000	
0.9633	0.2941	20.0000	1.0000	1.0000	44.0000	1156.0000	
0.3600	0.4118	20.0000	1.0000	2.0000	768.0000	59.0000	368.0000	
0.3917	0.4066	20.0000	2.0000	1.0000	31.0000	699.0000	462.0000	
0.5367	0.3661	20.0000	1.0000	1.0000	556.0000	637.0000	
0.5225	0.3774	20.0000	2.0000	1.0000	35.0000	538.0000	623.0000	
0.9692	0.4231	20.0000	1.0000	1.0000	37.0000	1163.0000	
0.2933	0.4228	20.0000	1.0000	3.0000	848.0000	66.0000	77.0000	205.0000	
0.3833	0.3936	20.0000	1.0000	1.0000	740.0000	455.0000	
0.9767	0.4000	20.0000	1.0000	1.0000	28.0000	1172.0000	
0.9600	0.2973	20.0000	1.0000	1.0000	48.0000	1152.0000	
0.9600	0.3714	20.0000	1.0000	1.0000	48.0000	1152.0000	
0.9667	0.3333	20.0000	1.0000	1.0000	40.0000	1160.0000	
0.5150	0.3759	20.0000	2.0000	1.0000	91.0000	491.0000	618.0000	
0.9650	0.3548	20.0000	1.0000	1.0000	42.0000	1158.0000	
0.9800	0.4118	20.0000	1.0000	1.0000	24.0000	1176.0000	
0.3908	0.4031	20.0000	1.0000	1.0000	731.0000	462.0000	
0.9675	0.3448	20.0000	1.0000	1.0000	39.0000	1161.0000	
0.9742	0.4091	20.0000	1.0000	1.0000	31.0000	1169.0000	
0.5242	0.3726	20.0000	1.0000	1.0000	570.0000	624.0000	
0.5875	0.3788	20.0000	3.0000	1.0000	27.0000	31.0000	437.0000	701.0000	
0.4967	0.3853	20.0000	2.0000	1.0000	31.0000	573.0000	591.0000	
0.3983	0.3965	20.0000	1.0000	2.0000	722.0000	144.0000	331.0000	
0.3825	0.4223	20.0000	1.0000	1.0000	741.0000	453.0000	
0.5492	0.3979	20.0000	2.0000	1.0000	153.0000	388.0000	658.0000	
0.5642	0.3410	20.0000	3.0000	2.0000	31.0000	35.0000	457.0000	8.0000	665.0000	
0.4467	0.4038	20.0000	1.0000	2.0000	664.0000	6.0000	528.0000	
0.9817	0.4667	20.0000	1.0000	1.0000	22.0000	1178.0000	
0.9708	0.2963	20.0000	1.0000	1.0000	35.0000	1165.0000	
0.4642	0.3858	20.0000	2.0000	1.0000	95.0000	548.0000	557.0000	
0.9800	0.4118	20.0000	1.0000	1.0000	24.0000	1176.0000	
0.9617	0.3143	20.0000	1.0000	1.0000	46.0000	1154.0000	
0.9467	0.3333	20.0000	1.0000	1.0000	64.0000	1136.0000	
0.9758	0.3810	20.0000	1.0000	1.0000	29.0000	1171.0000	
0.9675	0.3448	20.0000	1.0000	1.0000	39.0000	1161.0000	
0.5350	0.3812	20.0000	1.0000	1.0000	558.0000	640.0000	
0.9692	0.3704	20.0000	1.0000	1.0000	37.0000	1163.0000	
0.4950	0.3804	20.0000	1.0000	1.0000	606.0000	586.0000	
0.9583	0.3514	20.0000	1.0000	1.0000	50.0000	1150.0000	
0.4575	0.3822	20.0000	1.0000	2.0000	651.0000	42.0000	502.0000	
0.9700	0.3333	20.0000	1.0000	1.0000	36.0000	1164.0000	
0.3433	0.3972	20.0000	1.0000	2.0000	788.0000	54.0000	356.0000	
0.5150	0.3694	20.0000	2.0000	1.0000	61.0000	521.0000	615.0000	
0.9767	0.4737	20.0000	1.0000	1.0000	28.0000	1172.0000	
0.9733	0.3913	20.0000	1.0000	1.0000	32.0000	1168.0000	
0.4058	0.3953	20.0000	1.0000	1.0000	713.0000	482.0000	
0.9742	0.3478	20.0000	1.0000	1.0000	31.0000	1169.0000	
0.9667	0.3793	20.0000	1.0000	1.0000	40.0000	1160.0000	
0.9675	0.3000	20.0000	1.0000	1.0000	39.0000	1161.0000	
0.9808	0.4375	20.0000	1.0000	1.0000	23.0000	1177.0000	
0.9775	0.4211	20.0000	1.0000	1.0000	27.0000	1173.0000	
0.4792	0.3858	20.0000	1.0000	1.0000	625.0000	568.0000	
0.9725	0.3750	20.0000	1.0000	1.0000	33.0000	1167.0000	
0.4358	0.4046	20.0000	2.0000	2.0000	23.0000	654.0000	64.0000	452.0000	
0.4858	0.3620	20.0000	1.0000	2.0000	617.0000	38.0000	540.0000	
0.9808	0.4375	20.0000	1.0000	1.0000	23.0000	1177.0000	
0.4325	0.3955	20.0000	1.0000	1.0000	681.0000	515.0000	
0.4175	0.4207	20.0000	1.0000	1.0000	699.0000	500.0000	
0.9692	0.3214	20.0000	1.0000	1.0000	37.0000	1163.0000	
0.4442	0.4131	20.0000	1.0000	1.0000	667.0000	530.0000	
0.9767	0.4737	20.0000	1.0000	1.0000	28.0000	1172.0000	
0.9750	0.4286	20.0000	1.0000	1.0000	30.0000	1170.0000	
0.9700	0.3333	20.0000	1.0000	1.0000	36.0000	1164.0000	
0.9692	0.3214	20.0000	1.0000	1.0000	37.0000	1163.0000	
0.5317	0.3510	20.0000	3.0000	1.0000	65.0000	109.0000	388.0000	635.0000	
0.4950	0.3741	20.0000	1.0000	1.0000	606.0000	588.0000	
0.4433	0.4034	20.0000	1.0000	1.0000	667.0000	529.0000	
0.9733	0.3913	20.0000	1.0000	1.0000	32.0000	1168.0000	
0.5283	0.3705	20.0000	1.0000	2.0000	566.0000	42.0000	586.0000	
0.5700	0.3687	20.0000	3.0000	1.0000	29.0000	36.0000	451.0000	679.0000	
0.3667	0.3694	20.0000	1.0000	1.0000	760.0000	434.0000	
0.9617	0.2778	20.0000	1.0000	1.0000	46.0000	1154.0000	
0.6325	0.3364	20.0000	3.0000	1.0000	74.0000	179.0000	188.0000	757.0000	
0.3367	0.4164	20.0000	1.0000	2.0000	796.0000	168.0000	226.0000	
0.9692	0.3704	20.0000	1.0000	1.0000	37.0000	1163.0000	
0.4908	0.3950	20.0000	1.0000	1.0000	611.0000	589.0000	
0.3258	0.4119	20.0000	1.0000	2.0000	809.0000	121.0000	264.0000	
0.5458	0.3728	20.0000	1.0000	2.0000	545.0000	38.0000	616.0000	
0.4217	0.4049	20.0000	1.0000	1.0000	694.0000	504.0000	
0.9608	0.3429	20.0000	1.0000	1.0000	47.0000	1153.0000	
0.4033	0.4067	20.0000	1.0000	2.0000	716.0000	226.0000	254.0000	
0.3842	0.4322	20.0000	1.0000	1.0000	739.0000	460.0000	
0.9683	0.3571	20.0000	1.0000	1.0000	38.0000	1162.0000	
0.9600	0.3714	20.0000	1.0000	1.0000	48.0000	1152.0000	
0.9683	0.3571	20.0000	1.0000	1.0000	38.0000	1162.0000	
0.2883	0.4000	20.0000	1.0000	2.0000	854.0000	49.0000	292.0000	
0.3417	0.4209	20.0000	1.0000	3.0000	790.0000	49.0000	129.0000	231.0000	
0.3475	0.4083	20.0000	1.0000	2.0000	783.0000	194.0000	222.0000	
0.9642	0.3438	20.0000	1.0000	1.0000	43.0000	1156.0000	
0.9742	0.4091	20.0000	1.0000	1.0000	31.0000	1169.0000	
0.9808	0.4375	20.0000	1.0000	1.0000	23.0000	1177.0000	
0.5650	0.3883	20.0000	1.0000	2.0000	522.0000	8.0000	670.0000	
0.5275	0.3966	20.0000	3.0000	1.0000	27.0000	64.0000	476.0000	628.0000	
0.5092	0.3603	20.0000	1.0000	1.0000	589.0000	606.0000	
0.9800	0.5000	20.0000	1.0000	1.0000	24.0000	1176.0000	
0.9725	0.3750	20.0000	1.0000	1.0000	33.0000	1167.0000	
0.9808	0.4375	20.0000	1.0000	1.0000	23.0000	1177.0000	
0.9792	0.3889	20.0000	1.0000	1.0000	25.0000	1175.0000	
0.9750	0.3636	20.0000	1.0000	1.0000	30.0000	1170.0000	
0.9425	0.3269	20.0000	1.0000	1.0000	69.0000	1131.0000	
0.1717	0.4490	20.0000	1.0000	3.0000	994.0000	48.0000	56.0000	97.0000	
0.9625	0.3235	20.0000	1.0000	1.0000	45.0000	1155.0000	
0.9742	0.4091	20.0000	1.0000	1.0000	31.0000	1169.0000	
0.4950	0.3773	20.0000	2.0000	2.0000	31.0000	575.0000	134.0000	456.0000	
0.9683	0.4074	20.0000	1.0000	1.0000	38.0000	1162.0000	
0.3533	0.4135	20.0000	1.0000	1.0000	776.0000	421.0000	
0.4700	0.3917	20.0000	1.0000	1.0000	636.0000	561.0000	
0.9767	0.4000	20.0000	1.0000	1.0000	28.0000	1172.0000	
0.4192	0.3940	20.0000	1.0000	1.0000	697.0000	500.0000	
0.4408	0.3835	20.0000	1.0000	1.0000	671.0000	524.0000	
0.9792	0.3889	20.0000	1.0000	1.0000	25.0000	1175.0000	
0.9733	0.3333	20.0000	1.0000	1.0000	32.0000	1168.0000	
0.9742	0.4091	20.0000	1.0000	1.0000	31.0000	1169.0000	
0.4783	0.3789	20.0000	2.0000	1.0000	31.0000	595.0000	571.0000	
0.9625	0.3636	20.0000	1.0000	1.0000	45.0000	1155.0000	
0.9542	0.3750	20.0000	1.0000	1.0000	55.0000	1145.0000	
0.9700	0.3846	20.0000	1.0000	1.0000	36.0000	1164.0000	
0.4075	0.3726	20.0000	2.0000	2.0000	29.0000	682.0000	65.0000	418.0000	
0.9767	0.4000	20.0000	1.0000	1.0000	28.0000	1172.0000	
0.9758	0.4500	20.0000	1.0000	1.0000	29.0000	1171.0000	
0.9608	0.3824	20.0000	1.0000	1.0000	47.0000	1153.0000	
0.9817	0.5714	20.0000	1.0000	1.0000	22.0000	1178.0000	
0.9792	0.3889	20.0000	1.0000	1.0000	25.0000	1175.0000	
0.4358	0.3988	20.0000	1.0000	2.0000	677.0000	49.0000	473.0000	
0.4492	0.4094	20.0000	1.0000	1.0000	661.0000	529.0000	
0.5433	0.3431	20.0000	2.0000	1.0000	37.0000	511.0000	650.0000	
0.9775	0.3500	20.0000	1.0000	1.0000	27.0000	1173.0000	
0.4850	0.3703	20.0000	1.0000	1.0000	617.0000	573.0000	
0.9708	0.4000	20.0000	1.0000	1.0000	35.0000	1165.0000	
0.5692	0.3641	20.0000	1.0000	1.0000	517.0000	680.0000	
0.9767	0.4000	20.0000	1.0000	1.0000	28.0000	1172.0000	
0.5992	0.3511	20.0000	4.0000	1.0000	46.0000	75.0000	92.0000	268.0000	717.0000	
0.9708	0.3462	20.0000	1.0000	1.0000	35.0000	1165.0000	
0.9708	0.3462	20.0000	1.0000	1.0000	35.0000	1165.0000	
0.3958	0.4160	20.0000	2.0000	1.0000	31.0000	694.0000	471.0000	
0.4992	0.3567	20.0000	1.0000	1.0000	601.0000	588.0000	
0.5500	0.3811	20.0000	1.0000	1.0000	540.0000	659.0000	
0.9742	0.2917	20.0000	1.0000	1.0000	31.0000	1169.0000	
0.4017	0.3969	20.0000	2.0000	1.0000	64.0000	654.0000	480.0000	
0.9617	0.3529	20.0000	1.0000	1.0000	46.0000	1154.0000	
0.9808	0.4375	20.0000	1.0000	1.0000	23.0000	1177.0000	
0.4383	0.4189	20.0000	1.0000	1.0000	674.0000	526.0000	
0.4717	0.3783	20.0000	1.0000	1.0000	634.0000	562.0000	
0.5142	0.3750	20.0000	2.0000	1.0000	90.0000	492.0000	611.0000	
0.9808	0.4375	20.0000	1.0000	1.0000	23.0000	1177.0000	
0.4400	0.4088	20.0000	1.0000	1.0000	672.0000	526.0000	
0.9808	0.4375	20.0000	1.0000	1.0000	23.0000	1177.0000	
0.9733	0.4545	20.0000	1.0000	1.0000	32.0000	1168.0000	
0.3242	0.4303	20.0000	1.0000	1.0000	811.0000	388.0000	
0.4350	0.4096	20.0000	2.0000	1.0000	36.0000	642.0000	521.0000	
0.2517	0.4437	20.0000	1.0000	2.0000	898.0000	121.0000	179.0000	
0.9792	0.4706	20.0000	1.0000	1.0000	25.0000	1175.0000	
0.5942	0.3528	20.0000	2.0000	1.0000	31.0000	456.0000	713.0000	
0.5758	0.3907	20.0000	1.0000	1.0000	509.0000	687.0000	
0.9742	0.4091	20.0000	1.0000	1.0000	31.0000	1169.0000	
0.9742	0.4091	20.0000	1.0000	1.0000	31.0000	1169.0000	
0.3858	0.4146	20.0000	1.0000	1.0000	737.0000	458.0000	
0.5375	0.3806	20.0000	1.0000	2.0000	555.0000	114.0000	526.0000	
0.4650	0.3866	20.0000	1.0000	1.0000	642.0000	545.0000	
0.9808	0.4375	20.0000	1.0000	1.0000	23.0000	1177.0000	
0.4300	0.3846	20.0000	1.0000	1.0000	684.0000	515.0000	
0.9800	0.5000	20.0000	1.0000	1.0000	24.0000	1176.0000	
0.4283	0.4000	20.0000	1.0000	1.0000	686.0000	511.0000	
0.3992	0.4193	20.0000	1.0000	1.0000	721.0000	478.0000	
0.9850	0.6364	20.0000	1.0000	1.0000	18.0000	1182.0000	
0.9717	0.4167	20.0000	1.0000	1.0000	34.0000	1166.0000	
0.9667	0.3793	20.0000	1.0000	1.0000	40.0000	1160.0000	
0.4583	0.3919	20.0000	1.0000	1.0000	650.0000	546.0000	
0.5192	0.3804	20.0000	1.0000	1.0000	577.0000	612.0000	
0.3583	0.3899	20.0000	1.0000	2.0000	770.0000	38.0000	389.0000	
0.3767	0.4140	20.0000	2.0000	1.0000	28.0000	720.0000	447.0000	
0.5292	0.3549	20.0000	1.0000	1.0000	562.0000	632.0000	
0.4392	0.3992	20.0000	1.0000	2.0000	673.0000	90.0000	431.0000	
0.6275	0.3712	20.0000	2.0000	1.0000	45.0000	402.0000	752.0000	
0.2092	0.4511	20.0000	1.0000	2.0000	949.0000	57.0000	189.0000	
0.9633	0.3333	20.0000	1.0000	1.0000	44.0000	1156.0000	
0.4242	0.4218	20.0000	1.0000	2.0000	691.0000	38.0000	468.0000	
0.3842	0.4023	20.0000	1.0000	1.0000	739.0000	459.0000	
0.9733	0.3333	20.0000	1.0000	1.0000	32.0000	1168.0000	
0.9733	0.4545	20.0000	1.0000	1.0000	32.0000	1168.0000	
0.3483	0.4244	20.0000	1.0000	2.0000	782.0000	57.0000	355.0000	
0.9758	0.5263	20.0000	1.0000	1.0000	29.0000	1171.0000	
0.4333	0.3821	20.0000	1.0000	2.0000	680.0000	57.0000	460.0000	
0.5350	0.3610	20.0000	1.0000	2.0000	558.0000	6.0000	635.0000	
0.5033	0.3701	20.0000	2.0000	1.0000	153.0000	442.0000	602.0000	
0.9692	0.3704	20.0000	1.0000	1.0000	37.0000	1163.0000	
0.9775	0.3500	20.0000	1.0000	1.0000	27.0000	1173.0000	
0.9808	0.4375	20.0000	1.0000	1.0000	23.0000	1177.0000	
0.9758	0.3810	20.0000	1.0000	1.0000	29.0000	1171.0000	
0.5725	0.3790	20.0000	1.0000	1.0000	513.0000	687.0000	
0.2325	0.4458	20.0000	1.0000	2.0000	921.0000	46.0000	229.0000	
0.9767	0.4737	20.0000	1.0000	1.0000	28.0000	1172.0000	
0.3808	0.4152	20.0000	1.0000	2.0000	743.0000	37.0000	416.0000	
0.5217	0.3602	20.0000	2.0000	1.0000	31.0000	543.0000	624.0000	
0.9700	0.3846	20.0000	1.0000	1.0000	36.0000	1164.0000	
0.9583	0.3158	20.0000	1.0000	1.0000	50.0000	1150.0000	
0.3842	0.4103	20.0000	1.0000	2.0000	739.0000	211.0000	248.0000	
0.5292	0.4160	20.0000	2.0000	1.0000	235.0000	330.0000	632.0000	
0.9750	0.4286	20.0000	1.0000	1.0000	30.0000	1170.0000	
0.9758	0.3810	20.0000	1.0000	1.0000	29.0000	1171.0000	
0.4700	0.3826	20.0000	1.0000	1.0000	636.0000	559.0000	
0.5750	0.3600	20.0000	3.0000	1.0000	23.0000	71.0000	416.0000	685.0000	
0.9633	0.2941	20.0000	1.0000	1.0000	44.0000	1156.0000	
0.9733	0.3913	20.0000	1.0000	1.0000	32.0000	1168.0000	
0.9775	0.3500	20.0000	1.0000	1.0000	27.0000	1173.0000	
0.3875	0.4162	20.0000	2.0000	1.0000	31.0000	704.0000	463.0000	
0.9758	0.3810	20.0000	1.0000	1.0000	29.0000	1171.0000	
0.3900	0.3864	20.0000	1.0000	1.0000	732.0000	466.0000	
0.4817	0.3884	20.0000	1.0000	1.0000	622.0000	575.0000	
0.9675	0.3000	20.0000	1.0000	1.0000	39.0000	1161.0000	
0.4617	0.3983	20.0000	2.0000	1.0000	27.0000	619.0000	554.0000	
0.5567	0.3503	20.0000	2.0000	1.0000	37.0000	495.0000	667.0000	
0.4225	0.3916	20.0000	2.0000	2.0000	31.0000	661.0000	48.0000	455.0000	
0.3317	0.4170	20.0000	1.0000	2.0000	802.0000	90.0000	306.0000	
0.9692	0.3214	20.0000	1.0000	1.0000	37.0000	1163.0000	
0.3842	0.4023	20.0000	1.0000	1.0000	739.0000	456.0000	
0.3150	0.4346	20.0000	1.0000	2.0000	822.0000	121.0000	256.0000	
0.3183	0.4128	20.0000	1.0000	3.0000	818.0000	45.0000	53.0000	281.0000	
0.9750	0.4286	20.0000	1.0000	1.0000	30.0000	1170.0000	
0.9758	0.3182	20.0000	1.0000	1.0000	29.0000	1171.0000	
0.4442	0.3925	20.0000	2.0000	1.0000	31.0000	636.0000	529.0000	
0.4958	0.3972	20.0000	1.0000	1.0000	605.0000	588.0000	
0.9758	0.3182	20.0000	1.0000	1.0000	29.0000	1171.0000	
0.9767	0.4000	20.0000	1.0000	1.0000	28.0000	1172.0000	
0.9808	0.4375	20.0000	1.0000	1.0000	22.0000	1177.0000	
0.3058	0.4239	20.0000	1.0000	4.0000	833.0000	47.0000	64.0000	75.0000	174.0000	
0.3275	0.4108	20.0000	1.0000	2.0000	807.0000	51.0000	339.0000	
0.9717	0.3077	20.0000	1.0000	1.0000	34.0000	1166.0000	
0.9758	0.3810	20.0000	1.0000	1.0000	29.0000	1171.0000	
0.3208	0.4076	20.0000	1.0000	2.0000	815.0000	55.0000	325.0000	
0.4792	0.3797	20.0000	1.0000	1.0000	625.0000	572.0000	
0.5475	0.3852	20.0000	1.0000	1.0000	543.0000	656.0000	
0.9775	0.4211	20.0000	1.0000	1.0000	27.0000	1173.0000	
0.2842	0.4245	20.0000	1.0000	3.0000	859.0000	34.0000	56.0000	242.0000	
0.9650	0.3125	20.0000	1.0000	1.0000	42.0000	1158.0000	
0.9833	0.5385	20.0000	1.0000	1.0000	20.0000	1180.0000	
0.9783	0.4444	20.0000	1.0000	1.0000	26.0000	1174.0000	
0.9683	0.4074	20.0000	1.0000	1.0000	38.0000	1162.0000	
0.3308	0.4088	20.0000	1.0000	2.0000	803.0000	154.0000	236.0000	
0.4292	0.3727	20.0000	1.0000	2.0000	684.0000	85.0000	429.0000	
0.9767	0.4000	20.0000	1.0000	1.0000	28.0000	1172.0000	
0.4975	0.4056	20.0000	1.0000	1.0000	603.0000	596.0000	
0.5583	0.3802	20.0000	1.0000	1.0000	530.0000	663.0000	
0.3983	0.3779	20.0000	1.0000	1.0000	722.0000	477.0000	
0.4858	0.3650	20.0000	1.0000	1.0000	617.0000	578.0000	
0.9742	0.3478	20.0000	1.0000	1.0000	31.0000	1169.0000	
0.4925	0.4065	20.0000	1.0000	1.0000	609.0000	590.0000	
0.4142	0.3811	20.0000	1.0000	2.0000	703.0000	170.0000	325.0000	
0.9633	0.4194	20.0000	1.0000	1.0000	44.0000	1156.0000	
0.3358	0.4131	20.0000	1.0000	1.0000	797.0000	392.0000	
0.4250	0.3883	20.0000	1.0000	1.0000	690.0000	498.0000	
0.9700	0.3333	20.0000	1.0000	1.0000	36.0000	1164.0000	
0.9775	0.4211	20.0000	1.0000	1.0000	27.0000	1173.0000	
0.5283	0.3639	20.0000	1.0000	1.0000	566.0000	630.0000	
0.9683	0.3571	20.0000	1.0000	1.0000	38.0000	1162.0000	
0.9675	0.3448	20.0000	1.0000	1.0000	39.0000	1161.0000	
0.3367	0.4189	20.0000	1.0000	1.0000	796.0000	399.0000	
0.6175	0.3580	20.0000	2.0000	1.0000	60.0000	399.0000	741.0000	
0.9708	0.3462	20.0000	1.0000	1.0000	35.0000	1165.0000	
0.9708	0.2963	20.0000	1.0000	1.0000	35.0000	1165.0000	
0.4700	0.3796	20.0000	1.0000	1.0000	636.0000	560.0000	
0.9775	0.3500	20.0000	1.0000	1.0000	27.0000	1173.0000	
0.3283	0.4165	20.0000	1.0000	1.0000	806.0000	390.0000	
0.4417	0.3929	20.0000	1.0000	2.0000	670.0000	56.0000	471.0000	
0.9667	0.2903	20.0000	1.0000	1.0000	40.0000	1160.0000	
0.5367	0.3900	20.0000	1.0000	1.0000	556.0000	642.0000	
0.4625	0.3841	20.0000	1.0000	2.0000	645.0000	51.0000	502.0000	
0.9775	0.4211	20.0000	1.0000	1.0000	27.0000	1173.0000	
0.9650	0.3125	20.0000	1.0000	1.0000	42.0000	1158.0000	
0.4525	0.3861	20.0000	1.0000	3.0000	657.0000	42.0000	159.0000	341.0000	
0.9542	0.3750	20.0000	1.0000	1.0000	55.0000	1145.0000	
0.5008	0.3645	20.0000	1.0000	1.0000	599.0000	598.0000	
0.9742	0.3478	20.0000	1.0000	1.0000	31.0000	1169.0000	
0.5383	0.3920	20.0000	2.0000	1.0000	43.0000	511.0000	643.0000	
0.9775	0.3500	20.0000	1.0000	1.0000	27.0000	1173.0000	
0.9692	0.3214	20.0000	1.0000	1.0000	37.0000	1163.0000	
0.9650	0.3125	20.0000	1.0000	1.0000	42.0000	1158.0000	
0.5817	0.3678	20.0000	2.0000	1.0000	109.0000	393.0000	698.0000	
0.9675	0.3448	20.0000	1.0000	1.0000	39.0000	1161.0000	
0.9775	0.3500	20.0000	1.0000	1.0000	27.0000	1173.0000	
0.9708	0.3462	20.0000	1.0000	1.0000	35.0000	1165.0000	
0.9808	0.4375	20.0000	1.0000	1.0000	23.0000	1177.0000	
0.9717	0.3600	20.0000	1.0000	1.0000	34.0000	1166.0000	
0.9775	0.3500	20.0000	1.0000	1.0000	27.0000	1173.0000	
0.4475	0.3812	20.0000	1.0000	1.0000	663.0000	533.0000	
0.9750	0.3636	20.0000	1.0000	1.0000	30.0000	1170.0000	
0.9642	0.3438	20.0000	1.0000	1.0000	43.0000	1157.0000	
0.4350	0.3951	20.0000	1.0000	2.0000	678.0000	34.0000	486.0000	
0.9700	0.3846	20.0000	1.0000	1.0000	36.0000	1164.0000	
0.9775	0.3500	20.0000	1.0000	1.0000	27.0000	1173.0000	
0.9608	0.3056	20.0000	1.0000	1.0000	47.0000	1153.0000	
0.2600	0.4140	20.0000	1.0000	3.0000	888.0000	42.0000	106.0000	159.0000	
0.9683	0.3571	20.0000	1.0000	1.0000	38.0000	1162.0000	
0.9742	0.3478	20.0000	1.0000	1.0000	31.0000	1169.0000	
0.4700	0.3826	20.0000	1.0000	2.0000	636.0000	154.0000	408.0000	
0.9533	0.3023	20.0000	1.0000	1.0000	56.0000	1144.0000	
0.9617	0.3143	20.0000	1.0000	1.0000	46.0000	1154.0000	
0.4892	0.3932	20.0000	1.0000	1.0000	613.0000	584.0000	
0.9742	0.3478	20.0000	1.0000	1.0000	31.0000	1169.0000	
0.4892	0.3869	20.0000	1.0000	1.0000	612.0000	587.0000	
0.6058	0.3710	20.0000	2.0000	1.0000	36.0000	436.0000	724.0000	
0.9708	0.3462	20.0000	1.0000	1.0000	35.0000	1165.0000	
0.9658	0.3226	20.0000	1.0000	1.0000	41.0000	1159.0000	
0.4483	0.3763	20.0000	1.0000	1.0000	662.0000	533.0000	
0.9775	0.3500	20.0000	1.0000	1.0000	27.0000	1173.0000	
0.9692	0.3704	20.0000	1.0000	1.0000	37.0000	1163.0000	
0.4858	0.3742	20.0000	1.0000	1.0000	617.0000	582.0000	
0.2258	0.4292	20.0000	1.0000	1.0000	929.0000	268.0000	
0.9808	0.4375	20.0000	1.0000	1.0000	23.0000	1177.0000	
0.9850	0.6364	20.0000	1.0000	1.0000	18.0000	1182.0000	
0.3733	0.4030	20.0000	1.0000	2.0000	752.0000	6.0000	438.0000	
0.3633	0.3993	20.0000	1.0000	2.0000	764.0000	87.0000	345.0000	
0.9708	0.4000	20.0000	1.0000	1.0000	35.0000	1165.0000	
0.4675	0.3982	20.0000	1.0000	1.0000	639.0000	561.0000	
0.9808	0.4375	20.0000	1.0000	1.0000	23.0000	1177.0000	
0.2758	0.4084	20.0000	1.0000	1.0000	869.0000	323.0000	
0.9725	0.3750	20.0000	1.0000	1.0000	33.0000	1167.0000	
0.4350	0.3865	20.0000	1.0000	1.0000	678.0000	520.0000	
0.9750	0.3636	20.0000	1.0000	1.0000	30.0000	1170.0000	
0.4558	0.3983	20.0000	1.0000	1.0000	653.0000	545.0000	
0.9717	0.3600	20.0000	1.0000	1.0000	34.0000	1166.0000	
0.9708	0.4583	20.0000	1.0000	1.0000	35.0000	1165.0000	
0.4925	0.3778	20.0000	2.0000	1.0000	58.0000	551.0000	587.0000	
0.9808	0.4375	20.0000	1.0000	1.0000	23.0000	1177.0000	
0.5233	0.3652	20.0000	1.0000	1.0000	572.0000	626.0000	
0.9733	0.3333	20.0000	1.0000	1.0000	32.0000	1168.0000	
0.9833	0.5385	20.0000	1.0000	1.0000	20.0000	1180.0000	
0.4800	0.3929	20.0000	1.0000	1.0000	624.0000	574.0000	
0.9667	0.3333	20.0000	1.0000	1.0000	40.0000	1160.0000	
0.9725	0.3750	20.0000	1.0000	1.0000	33.0000	1167.0000	
0.2450	0.4427	20.0000	1.0000	1.0000	906.0000	291.0000	
0.9833	0.5385	20.0000	1.0000	1.0000	20.0000	1180.0000	
0.4600	0.3787	20.0000	1.0000	2.0000	648.0000	88.0000	460.0000	
0.9608	0.3056	20.0000	1.0000	1.0000	47.0000	1153.0000	
0.3350	0.4275	20.0000	1.0000	2.0000	797.0000	56.0000	340.0000	
0.3575	0.4018	20.0000	1.0000	2.0000	771.0000	64.0000	359.0000	
0.9717	0.3600	20.0000	1.0000	1.0000	34.0000	1166.0000	
0.5467	0.3532	20.0000	1.0000	1.0000	544.0000	653.0000	
0.9775	0.3500	20.0000	1.0000	1.0000	27.0000	1173.0000	
0.4892	0.3806	20.0000	1.0000	1.0000	613.0000	583.0000	
0.3608	0.3945	20.0000	1.0000	2.0000	767.0000	196.0000	231.0000	
0.3633	0.4070	20.0000	1.0000	1.0000	764.0000	434.0000	
0.9717	0.4167	20.0000	1.0000	1.0000	34.0000	1166.0000	
0.4250	0.4110	20.0000	1.0000	1.0000	690.0000	505.0000	
0.3458	0.4430	20.0000	1.0000	2.0000	785.0000	40.0000	374.0000	
0.2133	0.4545	20.0000	1.0000	3.0000	944.0000	56.0000	61.0000	132.0000	
0.9650	0.5000	20.0000	1.0000	1.0000	42.0000	1158.0000	
0.9633	0.3333	20.0000	1.0000	1.0000	44.0000	1155.0000	
0.4125	0.3878	20.0000	1.0000	1.0000	705.0000	490.0000	
0.9717	0.3600	20.0000	1.0000	1.0000	34.0000	1166.0000	
0.9683	0.3571	20.0000	1.0000	1.0000	37.0000	1162.0000	
0.9750	0.4286	20.0000	1.0000	1.0000	30.0000	1170.0000	
0.9642	0.3438	20.0000	1.0000	1.0000	43.0000	1157.0000	
0.9733	0.3913	20.0000	1.0000	1.0000	32.0000	1168.0000	
0.9792	0.3889	20.0000	1.0000	1.0000	25.0000	1175.0000	
0.5292	0.3814	20.0000	1.0000	1.0000	565.0000	633.0000	
0.9775	0.5000	20.0000	1.0000	1.0000	27.0000	1173.0000	
0.5092	0.3990	20.0000	3.0000	1.0000	25.0000	81.0000	483.0000	611.0000	
0.4992	0.3753	20.0000	1.0000	1.0000	601.0000	594.0000	
0.9700	0.3846	20.0000	1.0000	1.0000	36.0000	1164.0000	
0.4617	0.3803	20.0000	1.0000	1.0000	646.0000	549.0000	
0.9708	0.4000	20.0000	1.0000	1.0000	35.0000	1165.0000	
0.2708	0.4274	20.0000	1.0000	1.0000	875.0000	316.0000	
0.4325	0.4012	20.0000	1.0000	1.0000	681.0000	514.0000	
0.3592	0.4084	20.0000	1.0000	2.0000	769.0000	191.0000	240.0000	
0.9842	0.7273	20.0000	1.0000	1.0000	19.0000	1181.0000	
0.4133	0.4251	20.0000	2.0000	1.0000	37.0000	667.0000	489.0000	
0.3208	0.4028	20.0000	1.0000	4.0000	815.0000	43.0000	103.0000	108.0000	128.0000	
0.9775	0.4211	20.0000	1.0000	1.0000	27.0000	1173.0000	
0.9575	0.3421	20.0000	1.0000	1.0000	51.0000	1149.0000	
0.9683	0.3571	20.0000	1.0000	1.0000	38.0000	1162.0000	
0.3942	0.4255	20.0000	1.0000	1.0000	727.0000	471.0000	
0.4200	0.4118	20.0000	2.0000	1.0000	33.0000	663.0000	500.0000	
0.9658	0.3226	20.0000	1.0000	1.0000	41.0000	1159.0000	
0.3308	0.4162	20.0000	1.0000	3.0000	803.0000	64.0000	70.0000	254.0000	
0.9758	0.3810	20.0000	1.0000	1.0000	29.0000	1171.0000	
0.5225	0.4010	20.0000	2.0000	1.0000	29.0000	544.0000	624.0000	
0.9725	0.3750	20.0000	1.0000	1.0000	32.0000	1167.0000	
0.3867	0.3992	20.0000	1.0000	1.0000	736.0000	459.0000	
0.9792	0.4706	20.0000	1.0000	1.0000	25.0000	1175.0000	
0.9767	0.4737	20.0000	1.0000	1.0000	28.0000	1172.0000	
0.9617	0.3143	20.0000	1.0000	1.0000	46.0000	1154.0000	
0.9750	0.3636	20.0000	1.0000	1.0000	30.0000	1170.0000	
0.3525	0.4000	20.0000	2.0000	1.0000	77.0000	700.0000	418.0000	
0.3467	0.4126	20.0000	1.0000	3.0000	784.0000	58.0000	93.0000	261.0000	
0.9742	0.4091	20.0000	1.0000	1.0000	31.0000	1169.0000	
0.9708	0.4583	20.0000	1.0000	1.0000	35.0000	1165.0000	
0.2900	0.4247	20.0000	1.0000	3.0000	852.0000	48.0000	137.0000	159.0000	
0.9725	0.3750	20.0000	1.0000	1.0000	33.0000	1167.0000	
0.9808	0.4375	20.0000	1.0000	1.0000	23.0000	1177.0000	
0.9467	0.3617	20.0000	1.0000	1.0000	64.0000	1135.0000	
0.4667	0.3646	20.0000	1.0000	1.0000	640.0000	550.0000	
0.5483	0.3722	20.0000	1.0000	1.0000	542.0000	652.0000	
0.4575	0.3910	20.0000	1.0000	1.0000	651.0000	548.0000	
0.9617	0.3143	20.0000	1.0000	1.0000	46.0000	1153.0000	
0.9617	0.3529	20.0000	1.0000	1.0000	46.0000	1154.0000	
0.4542	0.3819	20.0000	1.0000	1.0000	655.0000	542.0000	
0.3592	0.4188	20.0000	1.0000	2.0000	769.0000	63.0000	363.0000	
0.3517	0.4145	20.0000	1.0000	2.0000	778.0000	50.0000	370.0000	
0.6650	0.3355	20.0000	4.0000	1.0000	21.0000	31.0000	44.0000	306.0000	794.0000	
0.9808	0.4375	20.0000	1.0000	1.0000	23.0000	1177.0000	
0.9742	0.4091	20.0000	1.0000	1.0000	31.0000	1169.0000	
0.9633	0.2941	20.0000	1.0000	1.0000	44.0000	1156.0000	
0.6250	0.3846	20.0000	3.0000	1.0000	57.0000	133.0000	260.0000	749.0000	
0.9758	0.3810	20.0000	1.0000	1.0000	29.0000	1171.0000	
0.3350	0.4174	20.0000	1.0000	2.0000	798.0000	75.0000	326.0000	
0.9792	0.3889	20.0000	1.0000	1.0000	25.0000	1175.0000	
0.3733	0.4140	25.0000	1.0000	3.0000	1175.0000	101.0000	195.0000	396.0000	
0.4603	0.3882	25.0000	1.0000	1.0000	1012.0000	860.0000	
0.4128	0.4061	25.0000	1.0000	2.0000	1101.0000	47.0000	723.0000	
0.9835	0.3478	25.0000	1.0000	1.0000	31.0000	1844.0000	
0.9803	0.3214	25.0000	1.0000	1.0000	37.0000	1838.0000	
0.3792	0.4282	25.0000	1.0000	1.0000	1164.0000	706.0000	
0.9872	0.5000	25.0000	1.0000	1.0000	24.0000	1851.0000	
0.3963	0.3941	25.0000	1.0000	2.0000	1132.0000	42.0000	693.0000	
0.9845	0.3810	25.0000	1.0000	1.0000	29.0000	1846.0000	
0.3440	0.4057	25.0000	1.0000	2.0000	1230.0000	74.0000	562.0000	
0.9867	0.4706	25.0000	1.0000	1.0000	25.0000	1850.0000	
0.3493	0.4219	25.0000	1.0000	3.0000	1220.0000	136.0000	171.0000	342.0000	
0.5557	0.3678	25.0000	2.0000	1.0000	97.0000	736.0000	1039.0000	
0.3776	0.4094	25.0000	1.0000	3.0000	1167.0000	50.0000	99.0000	551.0000	
0.5899	0.3757	25.0000	3.0000	1.0000	26.0000	45.0000	698.0000	1103.0000	
0.4901	0.3855	25.0000	1.0000	1.0000	956.0000	911.0000	
0.5579	0.3612	25.0000	2.0000	2.0000	101.0000	728.0000	47.0000	995.0000	
0.9728	0.3077	25.0000	1.0000	1.0000	51.0000	1824.0000	
0.9819	0.4167	25.0000	1.0000	1.0000	34.0000	1841.0000	
0.4069	0.3970	25.0000	1.0000	2.0000	1112.0000	368.0000	389.0000	
0.4400	0.3871	25.0000	1.0000	1.0000	1050.0000	820.0000	
0.4667	0.3966	25.0000	1.0000	1.0000	1000.0000	870.0000	
0.4240	0.4099	25.0000	1.0000	2.0000	1080.0000	275.0000	519.0000	
0.9899	0.7273	25.0000	1.0000	1.0000	19.0000	1856.0000	
0.4955	0.3750	25.0000	2.0000	1.0000	39.0000	907.0000	924.0000	
0.3899	0.4020	25.0000	1.0000	3.0000	1144.0000	55.0000	78.0000	591.0000	
0.9813	0.2963	25.0000	1.0000	1.0000	35.0000	1840.0000	
0.9851	0.4737	25.0000	1.0000	1.0000	28.0000	1847.0000	
0.3824	0.4105	25.0000	1.0000	2.0000	1158.0000	67.0000	644.0000	
0.4021	0.4172	25.0000	1.0000	3.0000	1121.0000	225.0000	253.0000	272.0000	
0.4219	0.3987	25.0000	1.0000	4.0000	1084.0000	32.0000	46.0000	54.0000	657.0000	
0.4763	0.4253	25.0000	2.0000	1.0000	353.0000	629.0000	888.0000	
0.9760	0.3235	25.0000	1.0000	1.0000	45.0000	1830.0000	
0.9893	0.6667	25.0000	1.0000	1.0000	20.0000	1855.0000	
0.9787	0.3333	25.0000	1.0000	1.0000	40.0000	1835.0000	
0.3808	0.3971	25.0000	1.0000	4.0000	1161.0000	24.0000	51.0000	103.0000	532.0000	
0.9829	0.3333	25.0000	1.0000	1.0000	32.0000	1843.0000	
0.9877	0.5333	25.0000	1.0000	1.0000	23.0000	1852.0000	
0.9867	0.3889	25.0000	1.0000	1.0000	25.0000	1850.0000	
0.9803	0.3214	25.0000	1.0000	1.0000	37.0000	1838.0000	
0.5867	0.3455	25.0000	4.0000	1.0000	31.0000	59.0000	173.0000	512.0000	1094.0000	
0.9829	0.3333	25.0000	1.0000	1.0000	32.0000	1843.0000	
0.9851	0.4737	25.0000	1.0000	1.0000	28.0000	1847.0000	
0.9803	0.3704	25.0000	1.0000	1.0000	37.0000	1838.0000	
0.9781	0.3226	25.0000	1.0000	1.0000	41.0000	1834.0000	
0.5456	0.3809	25.0000	2.0000	1.0000	83.0000	769.0000	1018.0000	
0.4059	0.4119	25.0000	1.0000	3.0000	1114.0000	34.0000	41.0000	679.0000	
0.3856	0.4015	25.0000	1.0000	3.0000	1152.0000	39.0000	75.0000	598.0000	
0.9867	0.3889	25.0000	1.0000	1.0000	25.0000	1850.0000	
0.5109	0.3915	25.0000	2.0000	1.0000	61.0000	856.0000	952.0000	
0.9867	0.3889	25.0000	1.0000	1.0000	25.0000	1850.0000	
0.9819	0.3600	25.0000	1.0000	1.0000	34.0000	1841.0000	
0.3840	0.4051	25.0000	2.0000	1.0000	31.0000	1124.0000	716.0000	
0.4389	0.3915	25.0000	2.0000	2.0000	64.0000	987.0000	52.0000	768.0000	
0.9856	0.4211	25.0000	1.0000	1.0000	27.0000	1848.0000	
0.3328	0.4281	25.0000	1.0000	2.0000	1251.0000	37.0000	581.0000	
0.9797	0.3103	25.0000	1.0000	1.0000	38.0000	1837.0000	
0.9813	0.3462	25.0000	1.0000	1.0000	35.0000	1840.0000	
0.9877	0.4375	25.0000	1.0000	1.0000	23.0000	1852.0000	
0.4027	0.4018	25.0000	1.0000	3.0000	1120.0000	46.0000	137.0000	569.0000	
0.4667	0.3605	25.0000	1.0000	1.0000	1000.0000	864.0000	
0.4053	0.4025	25.0000	1.0000	3.0000	1115.0000	37.0000	60.0000	656.0000	
0.3541	0.4230	25.0000	2.0000	3.0000	56.0000	1155.0000	55.0000	63.0000	540.0000	
0.3579	0.4249	25.0000	1.0000	2.0000	1204.0000	127.0000	533.0000	
0.9776	0.3548	25.0000	1.0000	1.0000	42.0000	1833.0000	
0.9883	0.5714	25.0000	1.0000	1.0000	22.0000	1853.0000	
0.4416	0.3904	25.0000	2.0000	2.0000	173.0000	874.0000	8.0000	815.0000	
0.4005	0.4085	25.0000	1.0000	3.0000	1124.0000	37.0000	129.0000	582.0000	
0.9744	0.3333	25.0000	1.0000	1.0000	48.0000	1827.0000	
0.9845	0.3810	25.0000	1.0000	1.0000	29.0000	1846.0000	
0.9840	0.4286	25.0000	1.0000	1.0000	30.0000	1845.0000	
0.9803	0.4231	25.0000	1.0000	1.0000	36.0000	1838.0000	
0.3605	0.4139	25.0000	1.0000	2.0000	1199.0000	296.0000	378.0000	
0.9813	0.4000	25.0000	1.0000	1.0000	35.0000	1840.0000	
0.3739	0.4145	25.0000	1.0000	2.0000	1174.0000	53.0000	642.0000	
0.5435	0.3874	25.0000	2.0000	1.0000	27.0000	829.0000	1013.0000	
0.9824	0.4348	25.0000	1.0000	1.0000	33.0000	1842.0000	
0.9893	0.5385	25.0000	1.0000	1.0000	20.0000	1855.0000	
0.9867	0.4706	25.0000	1.0000	1.0000	25.0000	1850.0000	
0.4320	0.3813	25.0000	1.0000	2.0000	1065.0000	77.0000	727.0000	
0.9797	0.3103	25.0000	1.0000	1.0000	38.0000	1837.0000	
0.9755	0.3529	25.0000	1.0000	1.0000	46.0000	1829.0000	
0.9835	0.4091	25.0000	1.0000	1.0000	31.0000	1844.0000	
0.2725	0.4480	25.0000	1.0000	2.0000	1364.0000	80.0000	429.0000	
0.4496	0.3908	25.0000	2.0000	1.0000	86.0000	946.0000	840.0000	
0.9877	0.4375	25.0000	1.0000	1.0000	23.0000	1852.0000	
0.4395	0.3865	25.0000	1.0000	1.0000	1051.0000	821.0000	
0.9824	0.3750	25.0000	1.0000	1.0000	33.0000	1842.0000	
0.9856	0.3500	25.0000	1.0000	1.0000	27.0000	1848.0000	
0.6299	0.3424	25.0000	7.0000	1.0000	31.0000	31.0000	35.0000	40.0000	55.0000	178.0000	324.0000	1180.0000	
0.9776	0.3548	25.0000	1.0000	1.0000	42.0000	1833.0000	
0.9835	0.3478	25.0000	1.0000	1.0000	31.0000	1844.0000	
0.4603	0.3920	25.0000	2.0000	3.0000	72.0000	940.0000	35.0000	50.0000	776.0000	
0.5232	0.3691	25.0000	4.0000	1.0000	31.0000	101.0000	132.0000	630.0000	978.0000	
0.9819	0.3077	25.0000	1.0000	1.0000	34.0000	1841.0000	
0.6309	0.3516	25.0000	5.0000	1.0000	27.0000	27.0000	71.0000	122.0000	445.0000	1179.0000	
0.4699	0.3922	25.0000	1.0000	1.0000	994.0000	880.0000	
0.4491	0.3810	25.0000	1.0000	3.0000	1033.0000	48.0000	70.0000	717.0000	
0.3835	0.4167	25.0000	1.0000	1.0000	1156.0000	708.0000	
0.9845	0.3810	25.0000	1.0000	1.0000	29.0000	1846.0000	
0.4037	0.3958	25.0000	1.0000	1.0000	1118.0000	751.0000	
0.9899	0.5833	25.0000	1.0000	1.0000	19.0000	1856.0000	
0.5472	0.3782	25.0000	2.0000	1.0000	25.0000	824.0000	1024.0000	
0.4293	0.4153	25.0000	1.0000	1.0000	1070.0000	798.0000	
0.9835	0.4091	25.0000	1.0000	1.0000	31.0000	1844.0000	
0.3029	0.4378	25.0000	2.0000	2.0000	32.0000	1275.0000	157.0000	407.0000	
0.9899	0.5833	25.0000	1.0000	1.0000	19.0000	1856.0000	
0.4517	0.3967	25.0000	2.0000	3.0000	27.0000	1001.0000	50.0000	66.0000	725.0000	
0.4043	0.3928	25.0000	1.0000	4.0000	1117.0000	75.0000	175.0000	201.0000	301.0000	
0.6229	0.3649	25.0000	6.0000	1.0000	31.0000	38.0000	58.0000	88.0000	113.0000	377.0000	1167.0000	
0.5552	0.3650	25.0000	2.0000	1.0000	380.0000	454.0000	1040.0000	
0.9808	0.3846	25.0000	1.0000	1.0000	36.0000	1839.0000	
0.4731	0.3975	25.0000	1.0000	2.0000	988.0000	337.0000	543.0000	
0.4149	0.4118	25.0000	2.0000	1.0000	48.0000	1049.0000	772.0000	
0.4720	0.3885	25.0000	2.0000	3.0000	31.0000	959.0000	47.0000	88.0000	748.0000	
0.9803	0.3214	25.0000	1.0000	1.0000	37.0000	1838.0000	
0.4715	0.3977	25.0000	1.0000	2.0000	991.0000	75.0000	807.0000	
0.9792	0.3448	25.0000	1.0000	1.0000	39.0000	1836.0000	
0.3056	0.4230	25.0000	1.0000	3.0000	1302.0000	37.0000	59.0000	474.0000	
0.9792	0.3000	25.0000	1.0000	1.0000	39.0000	1836.0000	
0.9872	0.5000	25.0000	1.0000	1.0000	23.0000	1851.0000	
0.9888	0.6154	25.0000	1.0000	1.0000	21.0000	1854.0000	
0.9803	0.3704	25.0000	1.0000	1.0000	37.0000	1838.0000	
0.5749	0.3885	25.0000	4.0000	1.0000	31.0000	31.0000	39.0000	696.0000	1076.0000	
0.5152	0.3857	25.0000	2.0000	1.0000	65.0000	844.0000	962.0000	
0.9872	0.5000	25.0000	1.0000	1.0000	23.0000	1851.0000	
0.4171	0.4031	25.0000	2.0000	3.0000	23.0000	1070.0000	52.0000	216.0000	502.0000	
0.4304	0.3943	25.0000	1.0000	1.0000	1068.0000	799.0000	
0.4336	0.3937	25.0000	2.0000	3.0000	30.0000	1032.0000	53.0000	81.0000	670.0000	
0.9659	0.3333	25.0000	1.0000	1.0000	64.0000	1811.0000	
0.6251	0.3598	25.0000	5.0000	1.0000	31.0000	31.0000	31.0000	45.0000	565.0000	1169.0000	
0.4565	0.4153	25.0000	1.0000	2.0000	1019.0000	43.0000	807.0000	
0.9808	0.3846	25.0000	1.0000	1.0000	36.0000	1839.0000	
0.5216	0.3864	25.0000	2.0000	1.0000	29.0000	868.0000	968.0000	
0.5152	0.3710	25.0000	1.0000	1.0000	909.0000	962.0000	
0.4912	0.4050	25.0000	2.0000	2.0000	17.0000	937.0000	45.0000	872.0000	
0.3317	0.4206	25.0000	1.0000	2.0000	1253.0000	41.0000	579.0000	
0.3179	0.4195	25.0000	1.0000	4.0000	1279.0000	39.0000	43.0000	43.0000	459.0000	
0.9755	0.3143	25.0000	1.0000	1.0000	46.0000	1829.0000	
0.4720	0.3731	25.0000	1.0000	2.0000	990.0000	53.0000	825.0000	
0.9787	0.3333	25.0000	1.0000	1.0000	40.0000	1835.0000	
0.5392	0.3628	25.0000	1.0000	1.0000	864.0000	1006.0000	
0.9845	0.3182	25.0000	1.0000	1.0000	29.0000	1846.0000	
0.9792	0.3000	25.0000	1.0000	1.0000	39.0000	1836.0000	
0.3499	0.4224	25.0000	1.0000	1.0000	1219.0000	645.0000	
0.4875	0.3827	25.0000	2.0000	3.0000	154.0000	807.0000	6.0000	53.0000	844.0000	
0.5360	0.4055	25.0000	4.0000	1.0000	27.0000	64.0000	67.0000	712.0000	1002.0000	
0.9813	0.4000	25.0000	1.0000	1.0000	35.0000	1840.0000	
0.5941	0.3638	25.0000	5.0000	1.0000	31.0000	49.0000	104.0000	162.0000	415.0000	1112.0000	
0.9803	0.3214	25.0000	1.0000	1.0000	37.0000	1838.0000	
0.9792	0.3448	25.0000	1.0000	1.0000	39.0000	1836.0000	
0.9648	0.3200	25.0000	1.0000	1.0000	66.0000	1809.0000	
0.5147	0.3643	25.0000	2.0000	1.0000	31.0000	879.0000	962.0000	
0.3333	0.4205	25.0000	1.0000	1.0000	1250.0000	619.0000	
0.5632	0.3719	25.0000	4.0000	1.0000	41.0000	68.0000	105.0000	605.0000	1052.0000	
0.9781	0.3667	25.0000	1.0000	1.0000	41.0000	1834.0000	
0.3947	0.4134	25.0000	1.0000	1.0000	1135.0000	731.0000	
0.4304	0.4108	25.0000	1.0000	1.0000	1068.0000	801.0000	
0.9717	0.3590	25.0000	1.0000	1.0000	53.0000	1821.0000	
0.9685	0.3111	25.0000	1.0000	1.0000	59.0000	1816.0000	
0.9781	0.3667	25.0000	1.0000	1.0000	41.0000	1834.0000	
0.9856	0.4211	25.0000	1.0000	1.0000	27.0000	1848.0000	
0.9760	0.3235	25.0000	1.0000	1.0000	45.0000	1830.0000	
0.9835	0.2917	25.0000	1.0000	1.0000	31.0000	1844.0000	
0.4864	0.3997	25.0000	1.0000	1.0000	963.0000	910.0000	
0.3440	0.4171	25.0000	1.0000	2.0000	1230.0000	102.0000	535.0000	
0.9723	0.3000	25.0000	1.0000	1.0000	52.0000	1823.0000	
0.9835	0.4091	25.0000	1.0000	1.0000	31.0000	1844.0000	
0.3563	0.4084	25.0000	1.0000	4.0000	1207.0000	46.0000	61.0000	114.0000	441.0000	
0.4107	0.3899	25.0000	1.0000	2.0000	1105.0000	271.0000	489.0000	
0.2661	0.4304	25.0000	1.0000	5.0000	1376.0000	31.0000	34.0000	72.0000	153.0000	202.0000	
0.4469	0.4014	25.0000	1.0000	2.0000	1037.0000	38.0000	800.0000	
0.9856	0.4211	25.0000	1.0000	1.0000	27.0000	1848.0000	
0.4789	0.4098	25.0000	1.0000	1.0000	977.0000	897.0000	
0.9803	0.3704	25.0000	1.0000	1.0000	37.0000	1838.0000	
0.4203	0.3972	25.0000	2.0000	2.0000	31.0000	1056.0000	195.0000	586.0000	
0.2965	0.4137	25.0000	1.0000	3.0000	1319.0000	89.0000	144.0000	315.0000	
0.4245	0.4031	25.0000	2.0000	2.0000	31.0000	1048.0000	83.0000	705.0000	
0.9792	0.3929	25.0000	1.0000	1.0000	39.0000	1836.0000	
0.9776	0.3548	25.0000	1.0000	1.0000	42.0000	1833.0000	
0.4203	0.4154	25.0000	1.0000	3.0000	1087.0000	42.0000	67.0000	676.0000	
0.3195	0.4084	25.0000	1.0000	4.0000	1276.0000	60.0000	140.0000	143.0000	247.0000	
0.9893	0.5385	25.0000	1.0000	1.0000	20.0000	1855.0000	
0.9771	0.3438	25.0000	1.0000	1.0000	43.0000	1832.0000	
0.9771	0.3030	25.0000	1.0000	1.0000	43.0000	1832.0000	
0.9893	0.5385	25.0000	1.0000	1.0000	20.0000	1855.0000	
0.3739	0.4230	25.0000	1.0000	1.0000	1174.0000	696.0000	
0.9771	0.3438	25.0000	1.0000	1.0000	43.0000	1832.0000	
0.3877	0.4086	25.0000	1.0000	1.0000	1148.0000	726.0000	
0.9877	0.4375	25.0000	1.0000	1.0000	23.0000	1852.0000	
0.9899	0.5833	25.0000	1.0000	1.0000	19.0000	1856.0000	
0.4149	0.3975	25.0000	1.0000	1.0000	1097.0000	773.0000	
0.4075	0.3887	25.0000	1.0000	2.0000	1110.0000	6.0000	745.0000	
0.3877	0.3765	25.0000	1.0000	5.0000	1148.0000	39.0000	49.0000	61.0000	166.0000	398.0000	
0.3867	0.4024	25.0000	1.0000	3.0000	1150.0000	43.0000	91.0000	587.0000	
0.5819	0.3852	25.0000	3.0000	2.0000	31.0000	132.0000	621.0000	6.0000	1084.0000	
0.4725	0.3910	25.0000	3.0000	1.0000	23.0000	101.0000	865.0000	881.0000	
0.3659	0.4005	25.0000	1.0000	1.0000	1189.0000	678.0000	
0.9787	0.3333	25.0000	1.0000	1.0000	40.0000	1835.0000	
0.9845	0.3810	25.0000	1.0000	1.0000	29.0000	1846.0000	
0.9803	0.4231	25.0000	1.0000	1.0000	37.0000	1838.0000	
0.4763	0.3773	25.0000	1.0000	3.0000	982.0000	7.0000	61.0000	817.0000	
0.9861	0.4444	25.0000	1.0000	1.0000	26.0000	1849.0000	
0.9712	0.3500	25.0000	1.0000	1.0000	54.0000	1821.0000	
0.4619	0.4073	25.0000	1.0000	1.0000	1009.0000	861.0000	
0.9781	0.3226	25.0000	1.0000	1.0000	41.0000	1834.0000	
0.3077	0.4186	25.0000	1.0000	4.0000	1298.0000	41.0000	54.0000	55.0000	421.0000	
0.3355	0.4159	25.0000	1.0000	2.0000	1246.0000	165.0000	456.0000	
0.9824	0.3750	25.0000	1.0000	1.0000	33.0000	1842.0000	
0.9856	0.3500	25.0000	1.0000	1.0000	27.0000	1848.0000	
0.3253	0.4198	25.0000	1.0000	2.0000	1265.0000	52.0000	550.0000	
0.9755	0.3529	25.0000	1.0000	1.0000	46.0000	1829.0000	
0.9867	0.3889	25.0000	1.0000	1.0000	25.0000	1850.0000	
0.9776	0.3548	25.0000	1.0000	1.0000	42.0000	1833.0000	
0.4112	0.4136	25.0000	1.0000	2.0000	1104.0000	48.0000	719.0000	
0.9765	0.3333	25.0000	1.0000	1.0000	44.0000	1831.0000	
0.3120	0.4160	25.0000	1.0000	2.0000	1290.0000	56.0000	519.0000	
0.9899	0.5833	25.0000	1.0000	1.0000	19.0000	1856.0000	
0.9771	0.3030	25.0000	1.0000	1.0000	43.0000	1832.0000	
0.9824	0.4348	25.0000	1.0000	1.0000	33.0000	1842.0000	
0.3109	0.4059	25.0000	1.0000	3.0000	1292.0000	8.0000	77.0000	490.0000	
0.4773	0.3980	25.0000	1.0000	1.0000	980.0000	888.0000	
0.3824	0.4122	25.0000	1.0000	1.0000	1158.0000	709.0000	
0.5173	0.3859	25.0000	1.0000	1.0000	905.0000	963.0000	
0.3952	0.4264	25.0000	1.0000	1.0000	1134.0000	736.0000	
0.9808	0.3333	25.0000	1.0000	1.0000	36.0000	1839.0000	
0.4101	0.3965	25.0000	1.0000	1.0000	1106.0000	755.0000	
0.4485	0.3992	25.0000	1.0000	2.0000	1034.0000	359.0000	477.0000	
0.3307	0.4070	25.0000	1.0000	4.0000	1255.0000	89.0000	106.0000	199.0000	218.0000	
0.9877	0.4375	25.0000	1.0000	1.0000	23.0000	1852.0000	
0.9813	0.4000	25.0000	1.0000	1.0000	35.0000	1840.0000	
0.9808	0.4400	25.0000	1.0000	1.0000	36.0000	1839.0000	
0.3728	0.4237	25.0000	1.0000	1.0000	1176.0000	693.0000	
0.5227	0.3854	25.0000	1.0000	1.0000	895.0000	976.0000	
0.9835	0.4762	25.0000	1.0000	1.0000	31.0000	1844.0000	
0.4651	0.4048	25.0000	1.0000	3.0000	1003.0000	41.0000	83.0000	744.0000	
0.5840	0.3830	25.0000	4.0000	1.0000	31.0000	31.0000	155.0000	563.0000	1094.0000	
0.3739	0.3960	25.0000	3.0000	2.0000	31.0000	69.0000	1074.0000	72.0000	623.0000	
0.5477	0.3700	25.0000	1.0000	2.0000	848.0000	53.0000	965.0000	
0.5131	0.3688	25.0000	2.0000	1.0000	67.0000	846.0000	953.0000	
0.9904	0.6364	25.0000	1.0000	1.0000	18.0000	1857.0000	
0.9888	0.5000	25.0000	1.0000	1.0000	21.0000	1854.0000	
0.9792	0.3448	25.0000	1.0000	1.0000	39.0000	1836.0000	
0.9877	0.4375	25.0000	1.0000	1.0000	23.0000	1852.0000	
0.4704	0.4045	25.0000	2.0000	2.0000	56.0000	937.0000	79.0000	796.0000	
0.9877	0.4375	25.0000	1.0000	1.0000	23.0000	1852.0000	
0.3984	0.3875	25.0000	1.0000	3.0000	1128.0000	42.0000	57.0000	640.0000	
0.9867	0.4706	25.0000	1.0000	1.0000	25.0000	1850.0000	
0.2965	0.4259	25.0000	1.0000	4.0000	1319.0000	58.0000	61.0000	65.0000	362.0000	
0.9803	0.3704	25.0000	1.0000	1.0000	37.0000	1838.0000	
0.9845	0.3810	25.0000	1.0000	1.0000	29.0000	1846.0000	
0.9845	0.3810	25.0000	1.0000	1.0000	29.0000	1846.0000	
0.4411	0.3973	25.0000	1.0000	1.0000	1048.0000	822.0000	
0.4533	0.3984	25.0000	2.0000	1.0000	31.0000	994.0000	845.0000	
0.4928	0.3743	25.0000	1.0000	1.0000	951.0000	914.0000	
0.2741	0.4192	25.0000	1.0000	5.0000	1361.0000	38.0000	73.0000	77.0000	152.0000	160.0000	
0.9829	0.3333	25.0000	1.0000	1.0000	32.0000	1843.0000	
0.9808	0.3333	25.0000	1.0000	1.0000	36.0000	1839.0000	
0.9792	0.3000	25.0000	1.0000	1.0000	39.0000	1836.0000	
0.9835	0.3478	25.0000	1.0000	1.0000	31.0000	1844.0000	
0.4464	0.4027	25.0000	1.0000	2.0000	1038.0000	36.0000	799.0000	
0.9856	0.5882	25.0000	1.0000	1.0000	27.0000	1848.0000	
0.9813	0.3462	25.0000	1.0000	1.0000	35.0000	1840.0000	
0.3904	0.4199	25.0000	1.0000	2.0000	1143.0000	48.0000	681.0000	
0.6197	0.3504	25.0000	3.0000	1.0000	43.0000	127.0000	543.0000	1158.0000	
0.9824	0.3750	25.0000	1.0000	1.0000	32.0000	1842.0000	
0.9840	0.4286	25.0000	1.0000	1.0000	30.0000	1845.0000	
0.3621	0.4071	25.0000	1.0000	4.0000	1196.0000	51.0000	110.0000	205.0000	305.0000	
0.9840	0.4286	25.0000	1.0000	1.0000	30.0000	1845.0000	
0.5125	0.3807	25.0000	2.0000	1.0000	106.0000	808.0000	957.0000	
0.9840	0.4286	25.0000	1.0000	1.0000	30.0000	1845.0000	
0.9755	0.3529	25.0000	1.0000	1.0000	46.0000	1829.0000	
0.3488	0.4034	25.0000	1.0000	3.0000	1221.0000	79.0000	238.0000	326.0000	
0.9888	0.5000	25.0000	1.0000	1.0000	21.0000	1854.0000	
0.4821	0.3931	25.0000	2.0000	2.0000	29.0000	942.0000	63.0000	832.0000	
0.9840	0.4286	25.0000	1.0000	1.0000	30.0000	1845.0000	
0.3163	0.4213	25.0000	1.0000	4.0000	1282.0000	8.0000	39.0000	182.0000	357.0000	
0.4848	0.3840	25.0000	2.0000	1.0000	56.0000	910.0000	904.0000	
0.4917	0.3994	25.0000	1.0000	1.0000	953.0000	915.0000	
0.9787	0.3333	25.0000	1.0000	1.0000	40.0000	1835.0000	
0.4128	0.4061	25.0000	1.0000	2.0000	1100.0000	47.0000	721.0000	
0.9877	0.4375	25.0000	1.0000	1.0000	23.0000	1852.0000	
0.4133	0.3906	25.0000	1.0000	2.0000	1100.0000	84.0000	688.0000	
0.9701	0.3659	25.0000	1.0000	1.0000	56.0000	1819.0000	
0.9856	0.4211	25.0000	1.0000	1.0000	27.0000	1848.0000	
0.9776	0.3548	25.0000	1.0000	1.0000	42.0000	1832.0000	
0.4043	0.4050	25.0000	2.0000	2.0000	55.0000	1062.0000	58.0000	695.0000	
0.9856	0.3500	25.0000	1.0000	1.0000	27.0000	1848.0000	
0.9664	0.3404	25.0000	1.0000	1.0000	63.0000	1812.0000	
0.4059	0.4191	25.0000	2.0000	2.0000	57.0000	1057.0000	36.0000	721.0000	
0.9867	0.4706	25.0000	1.0000	1.0000	25.0000	1850.0000	
0.5840	0.3732	25.0000	2.0000	1.0000	110.0000	670.0000	1091.0000	
0.9781	0.3667	25.0000	1.0000	1.0000	41.0000	1834.0000	
0.3557	0.4212	25.0000	2.0000	1.0000	77.0000	1131.0000	659.0000	
0.5200	0.4151	25.0000	1.0000	1.0000	900.0000	974.0000	
0.4480	0.3911	25.0000	2.0000	2.0000	64.0000	971.0000	118.0000	719.0000	
0.4736	0.3941	25.0000	2.0000	1.0000	30.0000	957.0000	887.0000	
0.9867	0.4706	25.0000	1.0000	1.0000	25.0000	1850.0000	
0.9803	0.3214	25.0000	1.0000	1.0000	37.0000	1838.0000	
0.9792	0.3448	25.0000	1.0000	1.0000	39.0000	1836.0000	
0.9856	0.4211	25.0000	1.0000	1.0000	27.0000	1848.0000	
0.5317	0.3959	25.0000	3.0000	1.0000	30.0000	148.0000	700.0000	993.0000	
0.4368	0.3643	25.0000	1.0000	3.0000	1055.0000	103.0000	115.0000	596.0000	
0.9867	0.3889	25.0000	1.0000	1.0000	25.0000	1850.0000	
0.4427	0.4065	25.0000	1.0000	1.0000	1045.0000	824.0000	
0.9845	0.3810	25.0000	1.0000	1.0000	29.0000	1846.0000	
0.9771	0.3030	25.0000	1.0000	1.0000	43.0000	1832.0000	
0.3723	0.4232	25.0000	1.0000	1.0000	1177.0000	696.0000	
0.9845	0.3182	25.0000	1.0000	1.0000	29.0000	1846.0000	
0.9787	0.2903	25.0000	1.0000	1.0000	40.0000	1835.0000	
0.9808	0.3333	25.0000	1.0000	1.0000	36.0000	1839.0000	
0.9797	0.3571	25.0000	1.0000	1.0000	38.0000	1837.0000	
0.4075	0.4225	25.0000	1.0000	2.0000	1111.0000	364.0000	397.0000	
0.9840	0.3636	25.0000	1.0000	1.0000	30.0000	1845.0000	
0.3829	0.4075	25.0000	1.0000	1.0000	1157.0000	716.0000	
0.3787	0.3820	25.0000	1.0000	3.0000	1165.0000	43.0000	44.0000	614.0000	
0.5125	0.3954	25.0000	1.0000	1.0000	914.0000	957.0000	
0.9851	0.4000	25.0000	1.0000	1.0000	28.0000	1847.0000	
0.9867	0.3889	25.0000	1.0000	1.0000	25.0000	1850.0000	
0.9877	0.4375	25.0000	1.0000	1.0000	23.0000	1852.0000	
0.9792	0.3000	25.0000	1.0000	1.0000	39.0000	1836.0000	
0.9771	0.3438	25.0000	1.0000	1.0000	43.0000	1832.0000	
0.9792	0.3000	25.0000	1.0000	1.0000	39.0000	1836.0000	
0.9771	0.3871	25.0000	1.0000	1.0000	43.0000	1832.0000	
0.9813	0.4000	25.0000	1.0000	1.0000	35.0000	1840.0000	
0.5872	0.3748	25.0000	1.0000	1.0000	774.0000	1099.0000	
0.9867	0.3889	25.0000	1.0000	1.0000	25.0000	1850.0000	
0.5584	0.3823	25.0000	4.0000	1.0000	33.0000	77.0000	142.0000	576.0000	1044.0000	
0.9765	0.2941	25.0000	1.0000	1.0000	44.0000	1831.0000	
0.9787	0.3333	25.0000	1.0000	1.0000	40.0000	1835.0000	
0.3941	0.4077	25.0000	2.0000	3.0000	31.0000	1105.0000	41.0000	45.0000	638.0000	
0.9877	0.4375	25.0000	1.0000	1.0000	23.0000	1852.0000	
0.9893	0.6667	25.0000	1.0000	1.0000	20.0000	1855.0000	
0.4773	0.3649	25.0000	1.0000	1.0000	980.0000	890.0000	
0.9877	0.4375	25.0000	1.0000	1.0000	23.0000	1852.0000	
0.9792	0.3448	25.0000	1.0000	1.0000	39.0000	1836.0000	
0.5088	0.3955	25.0000	2.0000	2.0000	28.0000	892.0000	6.0000	943.0000	
0.9819	0.3600	25.0000	1.0000	1.0000	34.0000	1841.0000	
0.9877	0.5333	25.0000	1.0000	1.0000	23.0000	1852.0000	
0.9733	0.3514	25.0000	1.0000	1.0000	50.0000	1825.0000	
0.6069	0.3750	25.0000	4.0000	1.0000	31.0000	36.0000	99.0000	571.0000	1132.0000	
0.9813	0.4000	25.0000	1.0000	1.0000	35.0000	1840.0000	
0.9856	0.4211	25.0000	1.0000	1.0000	27.0000	1848.0000	
0.4683	0.3866	25.0000	2.0000	2.0000	22.0000	975.0000	83.0000	786.0000	
0.9877	0.5333	25.0000	1.0000	1.0000	23.0000	1852.0000	
0.2747	0.4530	25.0000	1.0000	2.0000	1360.0000	67.0000	446.0000	
0.5392	0.3913	25.0000	2.0000	1.0000	27.0000	837.0000	1010.0000	
0.9696	0.2955	25.0000	1.0000	1.0000	57.0000	1817.0000	
0.3595	0.4113	25.0000	1.0000	3.0000	1201.0000	63.0000	77.0000	529.0000	
0.3808	0.4124	25.0000	1.0000	4.0000	1161.0000	6.0000	46.0000	111.0000	542.0000	
0.3317	0.4304	25.0000	1.0000	3.0000	1253.0000	38.0000	77.0000	502.0000	
0.5312	0.3713	25.0000	4.0000	1.0000	29.0000	43.0000	115.0000	692.0000	988.0000	
0.3952	0.4035	25.0000	1.0000	2.0000	1134.0000	110.0000	624.0000	
0.4432	0.4070	25.0000	1.0000	3.0000	1044.0000	140.0000	152.0000	526.0000	
0.9781	0.3667	25.0000	1.0000	1.0000	41.0000	1834.0000	
0.9787	0.2903	25.0000	1.0000	1.0000	40.0000	1835.0000	
0.5541	0.3773	25.0000	4.0000	1.0000	23.0000	29.0000	32.0000	752.0000	1036.0000	
0.4912	0.3786	25.0000	1.0000	2.0000	954.0000	282.0000	628.0000	
0.4219	0.4151	25.0000	1.0000	1.0000	1084.0000	788.0000	
0.9845	0.4500	25.0000	1.0000	1.0000	29.0000	1846.0000	
0.4704	0.3986	25.0000	1.0000	3.0000	993.0000	58.0000	65.0000	751.0000	
0.9867	0.4706	25.0000	1.0000	1.0000	25.0000	1850.0000	
0.9845	0.4500	25.0000	1.0000	1.0000	29.0000	1846.0000	
0.9728	0.3421	25.0000	1.0000	1.0000	51.0000	1824.0000	
0.9808	0.3846	25.0000	1.0000	1.0000	36.0000	1839.0000	
0.5093	0.3731	25.0000	1.0000	1.0000	920.0000	948.0000	
0.9819	0.3077	25.0000	1.0000	1.0000	34.0000	1841.0000	
0.5541	0.4003	25.0000	2.0000	1.0000	35.0000	801.0000	1034.0000	
0.4773	0.3764	25.0000	2.0000	1.0000	62.0000	918.0000	885.0000	
0.9797	0.3571	25.0000	1.0000	1.0000	38.0000	1837.0000	
0.4555	0.3797	25.0000	1.0000	2.0000	1021.0000	69.0000	781.0000	
0.4229	0.3801	25.0000	1.0000	3.0000	1082.0000	53.0000	189.0000	540.0000	
0.4613	0.4047	25.0000	1.0000	1.0000	1010.0000	856.0000	
0.9851	0.5556	25.0000	1.0000	1.0000	28.0000	1847.0000	
0.4309	0.3930	25.0000	1.0000	2.0000	1067.0000	67.0000	735.0000	
0.9835	0.4091	25.0000	1.0000	1.0000	31.0000	1844.0000	
0.9835	0.4091	25.0000	1.0000	1.0000	31.0000	1844.0000	
0.9856	0.3500	25.0000	1.0000	1.0000	27.0000	1848.0000	
0.9883	0.4667	25.0000	1.0000	1.0000	22.0000	1853.0000	
0.4523	0.3897	25.0000	1.0000	1.0000	1026.0000	838.0000	
0.3371	0.4206	25.0000	1.0000	3.0000	1243.0000	96.0000	218.0000	315.0000	
0.3653	0.4083	25.0000	1.0000	4.0000	1190.0000	42.0000	84.0000	188.0000	360.0000	
0.5397	0.3897	25.0000	4.0000	1.0000	25.0000	31.0000	31.0000	776.0000	1007.0000	
0.9877	0.5333	25.0000	1.0000	1.0000	23.0000	1852.0000	
0.9877	0.4375	25.0000	1.0000	1.0000	23.0000	1852.0000	
0.9872	0.5000	25.0000	1.0000	1.0000	24.0000	1851.0000	
0.4704	0.3811	25.0000	2.0000	2.0000	58.0000	935.0000	43.0000	831.0000	
0.5168	0.3748	25.0000	1.0000	1.0000	906.0000	965.0000	
0.3808	0.4039	25.0000	1.0000	1.0000	1161.0000	711.0000	
0.9760	0.2857	25.0000	1.0000	1.0000	45.0000	1830.0000	
0.4704	0.3869	25.0000	2.0000	2.0000	76.0000	917.0000	42.0000	835.0000	
0.3445	0.4014	25.0000	1.0000	1.0000	1229.0000	637.0000	
0.9829	0.4545	25.0000	1.0000	1.0000	32.0000	1843.0000	
0.9867	0.3889	25.0000	1.0000	1.0000	25.0000	1850.0000	
0.9813	0.2963	25.0000	1.0000	1.0000	35.0000	1840.0000	
0.4171	0.4067	25.0000	1.0000	1.0000	1093.0000	776.0000	
0.9877	0.4375	25.0000	1.0000	1.0000	23.0000	1852.0000	
0.9893	0.5385	25.0000	1.0000	1.0000	20.0000	1855.0000	
0.3184	0.4311	25.0000	1.0000	3.0000	1278.0000	49.0000	207.0000	335.0000	
0.9803	0.3214	25.0000	1.0000	1.0000	37.0000	1838.0000	
0.9877	0.4375	25.0000	1.0000	1.0000	23.0000	1852.0000	
0.9696	0.2955	25.0000	1.0000	1.0000	57.0000	1817.0000	
0.9856	0.4211	25.0000	1.0000	1.0000	27.0000	1848.0000	
0.3979	0.3990	25.0000	1.0000	3.0000	1129.0000	62.0000	84.0000	590.0000	
0.4096	0.4120	25.0000	1.0000	1.0000	1107.0000	763.0000	
0.3253	0.4245	25.0000	1.0000	1.0000	1265.0000	606.0000	
0.4075	0.4189	25.0000	1.0000	4.0000	1111.0000	42.0000	45.0000	92.0000	581.0000	
0.9819	0.3600	25.0000	1.0000	1.0000	34.0000	1841.0000	
0.9845	0.3182	25.0000	1.0000	1.0000	29.0000	1846.0000	
0.3376	0.4066	25.0000	1.0000	5.0000	1242.0000	40.0000	40.0000	40.0000	42.0000	462.0000	
0.4043	0.3962	25.0000	1.0000	1.0000	1117.0000	749.0000	
0.9845	0.3810	25.0000	1.0000	1.0000	29.0000	1846.0000	
0.4992	0.3688	25.0000	1.0000	3.0000	939.0000	56.0000	107.0000	765.0000	
0.9771	0.3438	25.0000	1.0000	1.0000	43.0000	1832.0000	
0.4064	0.4053	25.0000	1.0000	2.0000	1113.0000	163.0000	583.0000	
0.4149	0.4082	25.0000	1.0000	2.0000	1097.0000	95.0000	680.0000	
0.9861	0.4444	25.0000	1.0000	1.0000	26.0000	1849.0000	
0.9840	0.4286	25.0000	1.0000	1.0000	30.0000	1845.0000	
0.4453	0.4111	25.0000	1.0000	2.0000	1040.0000	110.0000	717.0000	
0.4773	0.3881	25.0000	3.0000	1.0000	33.0000	103.0000	844.0000	888.0000	
0.9808	0.3333	25.0000	1.0000	1.0000	36.0000	1839.0000	
0.4640	0.3958	25.0000	1.0000	2.0000	1005.0000	144.0000	722.0000	
0.4789	0.3839	25.0000	1.0000	1.0000	977.0000	892.0000	
0.2789	0.4307	25.0000	1.0000	3.0000	1352.0000	33.0000	125.0000	356.0000	
0.4912	0.3786	25.0000	1.0000	2.0000	954.0000	163.0000	753.0000	
0.9781	0.3226	25.0000	1.0000	1.0000	41.0000	1834.0000	
0.3867	0.3939	25.0000	1.0000	3.0000	1150.0000	55.0000	87.0000	577.0000	
0.9888	0.5000	25.0000	1.0000	1.0000	21.0000	1854.0000	
0.9781	0.4138	25.0000	1.0000	1.0000	41.0000	1834.0000	
0.9845	0.3182	25.0000	1.0000	1.0000	29.0000	1846.0000	
0.4245	0.3923	25.0000	2.0000	2.0000	27.0000	1052.0000	8.0000	783.0000	
0.3744	0.3964	25.0000	1.0000	3.0000	1173.0000	54.0000	318.0000	323.0000	
0.3131	0.4015	25.0000	1.0000	5.0000	1288.0000	45.0000	51.0000	68.0000	176.0000	238.0000	
0.9776	0.3125	25.0000	1.0000	1.0000	42.0000	1833.0000	
0.9829	0.3913	25.0000	1.0000	1.0000	32.0000	1843.0000	
0.9824	0.3750	25.0000	1.0000	1.0000	33.0000	1842.0000	
0.9824	0.3750	25.0000	1.0000	1.0000	33.0000	1842.0000	
0.9813	0.3462	25.0000	1.0000	1.0000	35.0000	1840.0000	
0.9749	0.3056	25.0000	1.0000	1.0000	47.0000	1828.0000	
0.4528	0.3978	25.0000	1.0000	1.0000	1026.0000	841.0000	
0.3765	0.4050	25.0000	1.0000	2.0000	1168.0000	56.0000	639.0000	
0.5125	0.3891	25.0000	2.0000	2.0000	58.0000	856.0000	42.0000	913.0000	
0.4747	0.3757	25.0000	1.0000	1.0000	985.0000	884.0000	
0.3435	0.4133	25.0000	1.0000	2.0000	1231.0000	57.0000	580.0000	
0.4016	0.3818	25.0000	1.0000	2.0000	1122.0000	221.0000	521.0000	
0.3936	0.4054	25.0000	1.0000	3.0000	1137.0000	25.0000	151.0000	555.0000	
0.9797	0.3571	25.0000	1.0000	1.0000	38.0000	1837.0000	
0.4533	0.3870	25.0000	1.0000	3.0000	1024.0000	51.0000	66.0000	723.0000	
0.4827	0.3643	25.0000	3.0000	2.0000	31.0000	35.0000	904.0000	128.0000	767.0000	
0.9861	0.4444	25.0000	1.0000	1.0000	26.0000	1849.0000	
0.9824	0.3750	25.0000	1.0000	1.0000	33.0000	1842.0000	
0.4219	0.4005	25.0000	2.0000	1.0000	31.0000	1053.0000	786.0000	
0.4928	0.3783	25.0000	2.0000	1.0000	223.0000	728.0000	912.0000	
0.3920	0.4109	25.0000	1.0000	2.0000	1140.0000	51.0000	676.0000	
0.9824	0.3750	25.0000	1.0000	1.0000	33.0000	1842.0000	
0.4155	0.4142	25.0000	1.0000	1.0000	1095.0000	773.0000	
0.9781	0.3226	25.0000	1.0000	1.0000	41.0000	1834.0000	
0.4448	0.3843	25.0000	1.0000	4.0000	1041.0000	35.0000	60.0000	116.0000	616.0000	
0.3989	0.3931	25.0000	1.0000	1.0000	1127.0000	739.0000	
0.9813	0.3462	25.0000	1.0000	1.0000	35.0000	1840.0000	
0.6123	0.3743	25.0000	3.0000	1.0000	64.0000	90.0000	573.0000	1141.0000	
0.9824	0.3750	25.0000	1.0000	1.0000	33.0000	1842.0000	
0.4619	0.4053	25.0000	1.0000	2.0000	1009.0000	47.0000	813.0000	
0.4784	0.3736	25.0000	1.0000	2.0000	978.0000	47.0000	842.0000	
0.9803	0.3214	25.0000	1.0000	1.0000	37.0000	1838.0000	
0.9877	0.4375	25.0000	1.0000	1.0000	23.0000	1852.0000	
0.4288	0.3678	25.0000	2.0000	3.0000	43.0000	1027.0000	153.0000	214.0000	432.0000	
0.9851	0.4000	25.0000	1.0000	1.0000	28.0000	1847.0000	
0.9808	0.3846	25.0000	1.0000	1.0000	36.0000	1839.0000	
0.9760	0.3636	25.0000	1.0000	1.0000	45.0000	1830.0000	
0.4688	0.3911	25.0000	2.0000	2.0000	31.0000	965.0000	53.0000	818.0000	
0.5381	0.3724	25.0000	3.0000	1.0000	38.0000	178.0000	650.0000	1006.0000	
0.3824	0.3819	25.0000	1.0000	3.0000	1158.0000	37.0000	200.0000	472.0000	
0.4725	0.3832	25.0000	1.0000	3.0000	989.0000	6.0000	109.0000	765.0000	
0.9845	0.3810	25.0000	1.0000	1.0000	29.0000	1846.0000	
0.9797	0.4074	25.0000	1.0000	1.0000	38.0000	1837.0000	
0.9797	0.3571	25.0000	1.0000	1.0000	38.0000	1837.0000	
0.9856	0.3500	25.0000	1.0000	1.0000	27.0000	1848.0000	
0.3600	0.3905	25.0000	1.0000	3.0000	1200.0000	179.0000	195.0000	295.0000	
0.9824	0.3200	25.0000	1.0000	1.0000	33.0000	1842.0000	
0.9808	0.3333	25.0000	1.0000	1.0000	36.0000	1839.0000	
0.9861	0.4444	25.0000	1.0000	1.0000	26.0000	1849.0000	
0.9856	0.4211	25.0000	1.0000	1.0000	27.0000	1848.0000	
0.3915	0.4069	25.0000	1.0000	1.0000	1141.0000	733.0000	
0.9861	0.4444	25.0000	1.0000	1.0000	26.0000	1849.0000	
0.4219	0.4244	25.0000	1.0000	2.0000	1084.0000	38.0000	749.0000	
0.4507	0.3788	25.0000	1.0000	2.0000	1030.0000	59.0000	777.0000	
0.2939	0.4191	25.0000	1.0000	7.0000	1324.0000	51.0000	52.0000	59.0000	64.0000	80.0000	82.0000	155.0000	
0.9712	0.3500	25.0000	1.0000	1.0000	54.0000	1821.0000	
0.4864	0.3797	25.0000	2.0000	1.0000	35.0000	928.0000	905.0000	
0.4539	0.3932	25.0000	1.0000	1.0000	1024.0000	846.0000	
0.9845	0.3810	25.0000	1.0000	1.0000	29.0000	1846.0000	
0.9840	0.3636	25.0000	1.0000	1.0000	30.0000	1845.0000	
0.9867	0.3889	25.0000	1.0000	1.0000	25.0000	1850.0000	
0.9829	0.3333	25.0000	1.0000	1.0000	32.0000	1843.0000	
0.4848	0.4041	25.0000	2.0000	2.0000	33.0000	933.0000	80.0000	823.0000	
0.5067	0.3683	25.0000	2.0000	1.0000	65.0000	860.0000	944.0000	
0.4651	0.3989	25.0000	1.0000	1.0000	1003.0000	867.0000	
0.3333	0.4351	25.0000	1.0000	2.0000	1250.0000	108.0000	511.0000	
0.4219	0.4060	25.0000	1.0000	3.0000	1084.0000	137.0000	212.0000	437.0000	
